wavelength,counts
188.65,694.02
189.10,694.02
189.56,694.02
190.01,694.02
190.47,694.02
190.92,714.59
191.37,723.78
191.83,734.64
192.28,747.11
192.74,761.07
193.19,776.31
193.64,792.57
194.10,810.00
194.55,828.44
195.01,847.70
195.46,867.60
195.91,887.95
196.37,908.55
196.82,929.22
197.27,949.78
197.73,970.06
198.18,989.90
198.63,1009.15
199.09,1027.70
199.54,1045.42
199.99,1062.21
200.45,1077.99
200.90,1092.66
201.35,1106.16
201.81,1118.40
202.26,1129.33
202.71,1138.90
203.17,1147.07
203.62,1153.84
204.07,1159.25
204.53,1163.37
204.98,1166.31
205.43,1168.19
205.89,1169.17
206.34,1169.40
206.79,1169.03
207.25,1168.18
207.70,1166.97
208.15,1165.47
208.60,1163.74
209.06,1161.85
209.51,1159.86
209.96,1157.83
210.41,1155.85
210.87,1154.01
211.32,1152.38
211.77,1151.05
212.23,1150.05
212.68,1149.40
213.13,1149.07
213.58,1148.98
214.04,1149.04
214.49,1149.13
214.94,1149.13
215.39,1148.96
215.84,1148.54
216.30,1147.86
216.75,1146.91
217.20,1145.74
217.65,1144.40
218.11,1142.95
218.56,1141.44
219.01,1139.90
219.46,1138.35
219.91,1136.79
220.37,1135.22
220.82,1133.63
221.27,1132.05
221.72,1130.48
222.17,1128.98
222.63,1127.60
223.08,1126.41
223.53,1125.45
223.98,1124.76
224.43,1124.34
224.88,1124.17
225.34,1124.23
225.79,1124.47
226.24,1124.84
226.69,1125.30
227.14,1125.83
227.59,1126.45
228.04,1127.17
228.50,1128.00
228.95,1128.97
229.40,1130.08
229.85,1131.30
230.30,1132.60
230.75,1133.91
231.20,1135.15
231.66,1136.25
232.11,1137.15
232.56,1137.80
233.01,1138.16
233.46,1138.25
233.91,1138.08
234.36,1137.68
234.81,1137.10
235.26,1136.37
235.71,1135.53
236.17,1134.61
236.62,1133.63
237.07,1132.63
237.52,1131.62
237.97,1130.65
238.42,1129.77
238.87,1129.02
239.32,1128.48
239.77,1128.21
240.22,1128.27
240.67,1128.71
241.12,1129.54
241.57,1130.75
242.02,1132.32
242.47,1134.16
242.92,1136.21
243.37,1138.37
243.82,1140.54
244.27,1142.64
244.72,1144.62
245.18,1146.41
245.63,1147.99
246.08,1149.37
246.53,1150.52
246.98,1151.47
247.43,1152.20
247.88,1152.73
248.33,1153.03
248.78,1153.11
249.23,1152.95
249.68,1152.53
250.12,1151.85
250.57,1150.93
251.02,1149.79
251.47,1148.47
251.92,1147.03
252.37,1145.53
252.82,1144.04
253.27,1142.62
253.72,1141.32
254.17,1140.18
254.62,1139.23
255.07,1138.45
255.52,1137.84
255.97,1137.37
256.42,1137.02
256.87,1136.74
257.32,1136.51
257.77,1136.31
258.22,1136.12
258.66,1135.93
259.11,1135.75
259.56,1135.61
260.01,1135.54
260.46,1135.58
260.91,1135.77
261.36,1136.15
261.81,1136.72
262.26,1137.50
262.71,1138.45
263.15,1139.51
263.60,1140.63
264.05,1141.73
264.50,1142.75
264.95,1143.63
265.40,1144.35
265.85,1144.90
266.30,1145.32
266.74,1145.65
267.19,1145.94
267.64,1146.26
268.09,1146.67
268.54,1147.22
268.99,1147.93
269.43,1148.81
269.88,1149.83
270.33,1150.98
270.78,1152.20
271.23,1153.42
271.68,1154.60
272.12,1155.67
272.57,1156.59
273.02,1157.32
273.47,1157.83
273.92,1158.12
274.36,1158.21
274.81,1158.12
275.26,1157.89
275.71,1157.57
276.16,1157.22
276.60,1156.90
277.05,1156.65
277.50,1156.53
277.95,1156.57
278.39,1156.78
278.84,1157.16
279.29,1157.65
279.74,1158.21
280.19,1158.72
280.63,1159.08
281.08,1159.18
281.53,1158.90
281.98,1158.16
282.42,1156.94
282.87,1155.23
283.32,1153.11
283.76,1150.67
284.21,1148.09
284.66,1145.51
285.11,1143.13
285.55,1141.09
286.00,1139.50
286.45,1138.45
286.89,1137.95
287.34,1137.96
287.79,1138.39
288.23,1139.14
288.68,1140.06
289.13,1141.02
289.58,1141.89
290.02,1142.57
290.47,1143.02
290.92,1143.20
291.36,1143.17
291.81,1142.97
292.26,1142.70
292.70,1142.48
293.15,1142.41
293.60,1142.58
294.04,1143.06
294.49,1143.89
294.93,1145.08
295.38,1146.58
295.83,1148.36
296.27,1150.35
296.72,1152.46
297.17,1154.62
297.61,1156.79
298.06,1158.90
298.50,1160.91
298.95,1162.81
299.40,1164.56
299.84,1166.15
300.29,1167.57
300.73,1168.80
301.18,1169.83
301.63,1170.65
302.07,1171.26
302.52,1171.69
302.96,1171.95
303.41,1172.08
303.85,1172.12
304.30,1172.10
304.75,1172.05
305.19,1172.00
305.64,1171.96
306.08,1171.94
306.53,1171.94
306.97,1171.93
307.42,1171.91
307.86,1171.84
308.31,1171.69
308.75,1171.42
309.20,1170.98
309.65,1170.34
310.09,1169.43
310.54,1168.25
310.98,1166.77
311.43,1165.02
311.87,1163.02
312.32,1160.84
312.76,1158.56
313.21,1156.27
313.65,1154.06
314.10,1152.02
314.54,1150.24
314.99,1148.79
315.43,1147.71
315.87,1147.05
316.32,1146.83
316.76,1147.08
317.21,1147.78
317.65,1148.94
318.10,1150.54
318.54,1152.54
318.99,1154.90
319.43,1157.56
319.88,1160.45
320.32,1163.47
320.76,1166.54
321.21,1169.56
321.65,1172.42
322.10,1175.03
322.54,1177.33
322.99,1179.25
323.43,1180.75
323.87,1181.83
324.32,1182.50
324.76,1182.77
325.21,1182.68
325.65,1182.28
326.09,1181.60
326.54,1180.69
326.98,1179.58
327.42,1178.31
327.87,1176.90
328.31,1175.40
328.76,1173.83
329.20,1172.23
329.64,1170.63
330.09,1169.09
330.53,1167.62
330.97,1166.28
331.42,1165.09
331.86,1164.09
332.30,1163.31
332.75,1162.77
333.19,1162.51
333.63,1162.53
334.08,1162.82
334.52,1163.38
334.96,1164.17
335.41,1165.12
335.85,1166.16
336.29,1167.19
336.74,1168.10
337.18,1168.81
337.62,1169.22
338.06,1169.27
338.51,1168.95
338.95,1168.26
339.39,1167.25
339.84,1165.96
340.28,1164.49
340.72,1162.89
341.16,1161.24
341.61,1159.59
342.05,1157.96
342.49,1156.37
342.93,1154.84
343.38,1153.37
343.82,1151.99
344.26,1150.73
344.70,1149.62
345.15,1148.74
345.59,1148.13
346.03,1147.84
346.47,1147.89
346.92,1148.28
347.36,1148.97
347.80,1149.91
348.24,1151.00
348.68,1152.17
349.13,1153.33
349.57,1154.39
350.01,1155.33
350.45,1156.12
350.89,1156.78
351.34,1157.36
351.78,1157.92
352.22,1158.54
352.66,1159.30
353.10,1160.24
353.54,1161.40
353.99,1162.79
354.43,1164.39
354.87,1166.15
355.31,1168.02
355.75,1169.91
356.19,1171.77
356.63,1173.53
357.08,1175.17
357.52,1176.64
357.96,1177.93
358.40,1179.02
358.84,1179.91
359.28,1180.56
359.72,1180.97
360.16,1181.11
360.60,1180.97
361.05,1180.54
361.49,1179.82
361.93,1178.84
362.37,1177.62
362.81,1176.20
363.25,1174.64
363.69,1172.97
364.13,1171.27
364.57,1169.59
365.01,1168.00
365.45,1166.56
365.89,1165.34
366.33,1164.39
366.78,1163.75
367.22,1163.48
367.66,1163.57
368.10,1164.01
368.54,1164.78
368.98,1165.82
369.42,1167.06
369.86,1168.42
370.30,1169.81
370.74,1171.17
371.18,1172.42
371.62,1173.50
372.06,1174.39
372.50,1175.06
372.94,1175.52
373.38,1175.79
373.82,1175.93
374.26,1176.01
374.70,1176.13
375.14,1176.37
375.58,1176.85
376.02,1177.65
376.46,1178.86
376.90,1180.51
377.34,1182.63
377.78,1185.21
378.21,1188.21
378.65,1191.59
379.09,1195.29
379.53,1199.25
379.97,1203.41
380.41,1207.72
380.85,1212.12
381.29,1216.53
381.73,1220.89
382.17,1225.10
382.61,1229.07
383.05,1232.68
383.49,1235.84
383.93,1238.44
384.36,1240.43
384.80,1241.77
385.24,1242.47
385.68,1242.59
386.12,1242.25
386.56,1241.58
387.00,1240.76
387.44,1239.99
387.87,1239.46
388.31,1239.32
388.75,1239.69
389.19,1240.62
389.63,1242.12
390.07,1244.09
390.51,1246.40
390.94,1248.86
391.38,1251.24
391.82,1253.35
392.26,1254.99
392.70,1256.01
393.14,1256.34
393.57,1255.97
394.01,1254.96
394.45,1253.44
394.89,1251.57
395.33,1249.55
395.76,1247.59
396.20,1245.90
396.64,1244.65
397.08,1243.99
397.52,1244.03
397.95,1244.84
398.39,1246.47
398.83,1248.89
399.27,1252.07
399.70,1255.94
400.14,1260.40
400.58,1265.32
401.02,1270.57
401.45,1276.01
401.89,1281.51
402.33,1286.95
402.77,1292.23
403.20,1297.29
403.64,1302.10
404.08,1306.69
404.52,1311.10
404.95,1315.44
405.39,1319.83
405.83,1324.41
406.26,1329.33
406.70,1334.74
407.14,1340.74
407.58,1347.41
408.01,1354.77
408.45,1362.81
408.89,1371.44
409.32,1380.58
409.76,1390.07
410.20,1399.78
410.63,1409.55
411.07,1419.24
411.51,1428.73
411.94,1437.92
412.38,1446.75
412.82,1455.20
413.25,1463.28
413.69,1471.06
414.12,1478.64
414.56,1486.13
415.00,1493.68
415.43,1501.43
415.87,1509.50
416.31,1517.99
416.74,1526.93
417.18,1536.32
417.61,1546.12
418.05,1556.21
418.49,1566.48
418.92,1576.80
419.36,1587.06
419.79,1597.16
420.23,1607.04
420.67,1616.68
421.10,1626.07
421.54,1635.26
421.97,1644.27
422.41,1653.16
422.84,1661.97
423.28,1670.74
423.71,1679.53
424.15,1688.37
424.59,1697.31
425.02,1706.41
425.46,1715.71
425.89,1725.25
426.33,1735.06
426.76,1745.14
427.20,1755.46
427.63,1765.98
428.07,1776.64
428.50,1787.36
428.94,1798.08
429.37,1808.74
429.81,1819.31
430.24,1829.76
430.68,1840.11
431.11,1850.37
431.55,1860.57
431.98,1870.71
432.42,1880.80
432.85,1890.83
433.28,1900.79
433.72,1910.66
434.15,1920.44
434.59,1930.16
435.02,1939.90
435.46,1949.76
435.89,1959.88
436.33,1970.41
436.76,1981.52
437.19,1993.31
437.63,2005.84
438.06,2019.11
438.50,2033.00
438.93,2047.36
439.37,2061.96
439.80,2076.54
440.23,2090.85
440.67,2104.67
441.10,2117.86
441.53,2130.32
441.97,2142.03
442.40,2153.05
442.84,2163.44
443.27,2173.30
443.70,2182.68
444.14,2191.63
444.57,2200.16
445.00,2208.25
445.44,2215.87
445.87,2222.99
446.30,2229.64
446.74,2235.89
447.17,2241.87
447.60,2247.76
448.04,2253.82
448.47,2260.30
448.90,2267.46
449.34,2275.52
449.77,2284.62
450.20,2294.85
450.64,2306.20
451.07,2318.55
451.50,2331.76
451.93,2345.61
452.37,2359.88
452.80,2374.38
453.23,2388.96
453.67,2403.55
454.10,2418.12
454.53,2432.73
454.96,2447.52
455.40,2462.61
455.83,2478.15
456.26,2494.29
456.69,2511.09
457.13,2528.60
457.56,2546.78
457.99,2565.57
458.42,2584.83
458.86,2604.42
459.29,2624.18
459.72,2643.94
460.15,2663.54
460.58,2682.80
461.02,2701.60
461.45,2719.79
461.88,2737.28
462.31,2754.00
462.74,2769.96
463.18,2785.21
463.61,2799.87
464.04,2814.13
464.47,2828.22
464.90,2842.40
465.33,2856.94
465.77,2872.10
466.20,2888.10
466.63,2905.11
467.06,2923.27
467.49,2942.65
467.92,2963.31
468.35,2985.28
468.78,3008.60
469.22,3033.29
469.65,3059.42
470.08,3087.07
470.51,3116.33
470.94,3147.30
471.37,3180.06
471.80,3214.66
472.23,3251.06
472.66,3289.16
473.10,3328.76
473.53,3369.56
473.96,3411.23
474.39,3453.40
474.82,3495.76
475.25,3538.05
475.68,3580.13
476.11,3621.97
476.54,3663.66
476.97,3705.37
477.40,3747.28
477.83,3789.55
478.26,3832.31
478.69,3875.61
479.12,3919.42
479.55,3963.67
479.98,4008.28
480.41,4053.19
480.84,4098.36
481.27,4143.81
481.70,4189.56
482.13,4235.62
482.56,4281.96
482.99,4328.52
483.42,4375.16
483.85,4421.74
484.28,4468.10
484.71,4514.17
485.14,4559.91
485.57,4605.42
486.00,4650.85
486.43,4696.39
486.86,4742.18
487.29,4788.31
487.72,4834.74
488.15,4881.30
488.58,4927.71
489.01,4973.66
489.44,5018.82
489.87,5062.97
490.30,5106.00
490.72,5147.91
491.15,5188.81
491.58,5228.85
492.01,5268.15
492.44,5306.73
492.87,5344.49
493.30,5381.18
493.73,5416.50
494.16,5450.13
494.59,5481.83
495.01,5511.51
495.44,5539.30
495.87,5565.50
496.30,5590.59
496.73,5615.13
497.16,5639.64
497.59,5664.54
498.01,5690.10
498.44,5716.42
498.87,5743.47
499.30,5771.17
499.73,5799.48
500.16,5828.43
500.58,5858.21
501.01,5889.14
501.44,5921.58
501.87,5955.82
502.30,5992.01
502.72,6030.05
503.15,6069.51
503.58,6109.72
504.01,6149.78
504.44,6188.75
504.86,6225.82
505.29,6260.40
505.72,6292.28
506.15,6321.64
506.57,6348.99
507.00,6375.07
507.43,6400.65
507.86,6426.40
508.28,6452.71
508.71,6479.64
509.14,6506.90
509.57,6533.90
509.99,6559.95
510.42,6584.37
510.85,6606.69
511.27,6626.73
511.70,6644.66
512.13,6660.96
512.56,6676.35
512.98,6691.59
513.41,6707.36
513.84,6724.09
514.26,6741.89
514.69,6760.56
515.12,6779.64
515.54,6798.51
515.97,6816.60
516.40,6833.50
516.82,6849.10
517.25,6863.66
517.68,6877.73
518.10,6892.09
518.53,6907.58
518.95,6924.93
519.38,6944.57
519.81,6966.61
520.23,6990.70
520.66,7016.17
521.09,7042.14
521.51,7067.69
521.94,7092.05
522.36,7114.75
522.79,7135.77
523.22,7155.47
523.64,7174.59
524.07,7194.04
524.49,7214.75
524.92,7237.41
525.34,7262.35
525.77,7289.41
526.20,7317.91
526.62,7346.80
527.05,7374.76
527.47,7400.46
527.90,7422.78
528.32,7441.03
528.75,7455.06
529.17,7465.32
529.60,7472.75
530.02,7478.66
530.45,7484.49
530.87,7491.53
531.30,7500.70
531.72,7512.40
532.15,7526.44
532.57,7542.04
533.00,7558.02
533.42,7572.99
533.85,7585.63
534.27,7594.93
534.70,7600.39
535.12,7602.12
535.55,7600.88
535.97,7597.90
536.40,7594.72
536.82,7592.91
537.25,7593.78
537.67,7598.18
538.09,7606.31
538.52,7617.70
538.94,7631.28
539.37,7645.58
539.79,7658.99
540.22,7670.04
540.64,7677.70
541.06,7681.55
541.49,7681.91
541.91,7679.75
542.34,7676.61
542.76,7674.30
543.18,7674.62
543.61,7679.06
544.03,7688.51
544.46,7703.11
544.88,7722.22
545.30,7744.45
545.73,7767.88
546.15,7790.32
546.57,7809.67
547.00,7824.19
547.42,7832.83
547.84,7835.35
548.27,7832.44
548.69,7825.57
549.11,7816.83
549.54,7808.63
549.96,7803.35
550.38,7802.96
550.81,7808.76
551.23,7821.14
551.65,7839.55
552.07,7862.49
552.50,7887.82
552.92,7912.95
553.34,7935.28
553.77,7952.54
554.19,7963.13
554.61,7966.33
555.03,7962.42
555.46,7952.63
555.88,7938.98
556.30,7923.98
556.72,7910.31
557.15,7900.39
557.57,7896.10
557.99,7898.46
558.41,7907.54
558.84,7922.40
559.26,7941.24
559.68,7961.63
560.10,7980.85
560.52,7996.29
560.95,8005.79
561.37,8007.95
561.79,8002.39
562.21,7989.80
562.63,7971.89
563.06,7951.16
563.48,7930.63
563.90,7913.43
564.32,7902.37
564.74,7899.61
565.16,7906.32
565.58,7922.58
566.01,7947.34
566.43,7978.54
566.85,8013.43
567.27,8048.87
567.69,8081.78
568.11,8109.53
568.53,8130.24
568.96,8143.05
569.38,8148.18
569.80,8146.90
570.22,8141.35
570.64,8134.19
571.06,8128.28
571.48,8126.25
571.90,8130.18
572.32,8141.22
572.74,8159.52
573.16,8184.12
573.58,8213.08
574.01,8243.71
574.43,8272.89
574.85,8297.46
575.27,8314.61
575.69,8322.25
576.11,8319.25
576.53,8305.63
576.95,8282.57
577.37,8252.30
577.79,8217.90
578.21,8182.91
578.63,8151.03
579.05,8125.66
579.47,8109.54
579.89,8104.49
580.31,8111.13
580.73,8128.91
581.15,8156.10
581.57,8189.97
581.99,8227.14
582.41,8263.89
582.83,8296.60
583.25,8322.12
583.67,8338.13
584.09,8343.40
584.51,8337.95
584.93,8323.07
585.34,8301.16
585.76,8275.54
586.18,8250.10
586.60,8228.86
587.02,8215.58
587.44,8213.34
587.86,8224.23
588.28,8249.09
588.70,8287.49
589.12,8337.74
589.54,8397.08
589.95,8461.97
590.37,8528.50
590.79,8592.79
591.21,8651.34
591.63,8701.45
592.05,8741.47
592.47,8770.93
592.89,8790.60
593.30,8802.42
593.72,8809.27
594.14,8814.68
594.56,8822.47
594.98,8836.36
595.40,8859.54
595.81,8894.40
596.23,8942.21
596.65,9003.01
597.07,9075.54
597.49,9157.40
597.90,9245.22
598.32,9334.99
598.74,9422.42
599.16,9503.34
599.58,9574.06
599.99,9631.70
600.41,9674.46
600.83,9701.75
601.25,9714.20
601.66,9713.62
602.08,9702.80
602.50,9685.24
602.92,9664.80
603.33,9645.33
603.75,9630.30
604.17,9622.49
604.59,9623.73
605.00,9634.71
605.42,9654.99
605.84,9683.04
606.25,9716.44
606.67,9752.15
607.09,9786.80
607.51,9817.09
607.92,9840.08
608.34,9853.48
608.76,9855.85
609.17,9846.77
609.59,9826.82
610.01,9797.58
610.42,9761.45
610.84,9721.48
611.26,9681.10
611.67,9643.86
612.09,9613.12
612.51,9591.79
612.92,9582.12
613.34,9585.46
613.75,9602.22
614.17,9631.79
614.59,9672.62
615.00,9722.33
615.42,9777.89
615.83,9835.91
616.25,9892.90
616.67,9945.52
617.08,9990.91
617.50,10026.85
617.91,10051.99
618.33,10065.87
618.75,10069.02
619.16,10062.81
619.58,10049.39
619.99,10031.48
620.41,10012.08
620.82,9994.32
621.24,9981.13
621.65,9975.03
622.07,9977.95
622.48,9991.09
622.90,10014.82
623.31,10048.71
623.73,10091.55
624.14,10141.47
624.56,10196.13
624.97,10252.84
625.39,10308.82
625.80,10361.34
626.22,10407.99
626.63,10446.77
627.05,10476.26
627.46,10495.71
627.88,10505.10
628.29,10505.12
628.71,10497.14
629.12,10483.09
629.54,10465.37
629.95,10446.62
630.37,10429.57
630.78,10416.82
631.19,10410.63
631.61,10412.80
632.02,10424.48
632.44,10446.15
632.85,10477.53
633.26,10517.64
633.68,10564.92
634.09,10617.28
634.51,10672.34
634.92,10727.60
635.33,10780.61
635.75,10829.16
636.16,10871.47
636.57,10906.24
636.99,10932.81
637.40,10951.10
637.82,10961.66
638.23,10965.57
638.64,10964.37
639.06,10959.89
639.47,10954.21
639.88,10949.40
640.30,10947.51
640.71,10950.35
641.12,10959.42
641.53,10975.81
641.95,11000.14
642.36,11032.53
642.77,11072.57
643.19,11119.34
643.60,11171.50
644.01,11227.35
644.42,11284.94
644.84,11342.21
645.25,11397.14
645.66,11447.85
646.08,11492.77
646.49,11530.71
646.90,11560.94
647.31,11583.23
647.73,11597.88
648.14,11605.66
648.55,11607.79
648.96,11605.86
649.37,11601.70
649.79,11597.34
650.20,11594.82
650.61,11596.10
651.02,11602.94
651.43,11616.76
651.85,11638.56
652.26,11668.86
652.67,11707.64
653.08,11754.32
653.49,11807.84
653.90,11866.68
654.32,11928.99
654.73,11992.71
655.14,12055.71
655.55,12115.92
655.96,12171.47
656.37,12220.82
656.78,12262.84
657.20,12296.86
657.61,12322.76
658.02,12340.92
658.43,12352.22
658.84,12358.00
659.25,12359.95
659.66,12360.02
660.07,12360.29
660.48,12362.84
660.90,12369.56
661.31,12382.07
661.72,12401.55
662.13,12428.69
662.54,12463.67
662.95,12506.11
663.36,12555.18
663.77,12609.68
664.18,12668.12
664.59,12728.87
665.00,12790.27
665.41,12850.70
665.82,12908.68
666.23,12962.90
666.64,13012.27
667.05,13055.91
667.46,13093.19
667.87,13123.70
668.28,13147.33
668.69,13164.22
669.10,13174.81
669.51,13179.84
669.92,13180.35
670.33,13177.63
670.74,13173.18
671.15,13168.64
671.56,13165.67
671.97,13165.88
672.38,13170.68
672.79,13181.22
673.20,13198.32
673.61,13222.39
674.02,13253.46
674.42,13291.13
674.83,13334.67
675.24,13383.01
675.65,13434.82
676.06,13488.56
676.47,13542.56
676.88,13595.05
677.29,13644.29
677.70,13688.57
678.11,13726.37
678.51,13756.39
678.92,13777.68
679.33,13789.70
679.74,13792.37
680.15,13786.13
680.56,13771.93
680.97,13751.15
681.37,13725.59
681.78,13697.30
682.19,13668.48
682.60,13641.33
683.01,13617.89
683.42,13599.96
683.82,13588.93
684.23,13585.79
684.64,13591.07
685.05,13604.82
685.45,13626.67
685.86,13655.88
686.27,13691.38
686.68,13731.83
687.09,13775.73
687.49,13821.44
687.90,13867.26
688.31,13911.53
688.72,13952.64
689.12,13989.15
689.53,14019.85
689.94,14043.81
690.35,14060.40
690.75,14069.38
691.16,14070.86
691.57,14065.28
691.97,14053.43
692.38,14036.38
692.79,14015.42
693.20,13992.03
693.60,13967.81
694.01,13944.43
694.42,13923.58
694.82,13906.86
695.23,13895.76
695.64,13891.52
696.04,13895.11
696.45,13907.12
696.86,13927.74
697.26,13956.71
697.67,13993.39
698.07,14036.71
698.48,14085.32
698.89,14137.65
699.29,14191.99
699.70,14246.57
700.11,14299.66
700.51,14349.63
700.92,14394.98
701.32,14434.40
701.73,14466.78
702.14,14491.30
702.54,14507.39
702.95,14514.85
703.35,14513.79
703.76,14504.74
704.16,14488.57
704.57,14466.54
704.97,14440.19
705.38,14411.32
705.79,14381.90
706.19,14353.95
706.60,14329.43
707.00,14310.16
707.41,14297.71
707.81,14293.28
708.22,14297.67
708.62,14311.23
709.03,14333.82
709.43,14364.87
709.84,14403.40
710.24,14448.11
710.65,14497.48
711.05,14549.87
711.46,14603.62
711.86,14657.09
712.27,14708.78
712.67,14757.32
713.07,14801.52
713.48,14840.31
713.88,14872.80
714.29,14898.25
714.69,14916.08
715.10,14925.91
715.50,14927.59
715.90,14921.25
716.31,14907.31
716.71,14886.50
717.12,14859.88
717.52,14828.81
717.92,14794.87
718.33,14759.80
718.73,14725.46
719.14,14693.69
719.54,14666.22
719.94,14644.64
