wavelength,counts
188.65,268.55
189.10,268.55
189.56,268.55
190.01,268.55
190.47,268.55
190.92,309.57
191.37,326.04
191.83,344.25
192.28,363.74
192.74,383.98
193.19,404.37
193.64,424.28
194.10,444.23
194.55,464.04
195.01,483.58
195.46,502.75
195.91,521.49
196.37,539.76
196.82,557.49
197.27,574.65
197.73,591.18
198.18,607.04
198.63,622.20
199.09,636.60
199.54,650.21
199.99,662.98
200.45,674.86
200.90,685.84
201.35,695.87
201.81,704.93
202.26,713.01
202.71,720.12
203.17,726.27
203.62,731.51
204.07,735.89
204.53,739.50
204.98,742.42
205.43,744.76
205.89,746.62
206.34,748.10
206.79,749.29
207.25,750.27
207.70,751.07
208.15,751.73
208.60,752.25
209.06,752.62
209.51,752.81
209.96,752.79
210.41,752.52
210.87,751.97
211.32,751.12
211.77,749.96
212.23,748.50
212.68,746.76
213.13,744.79
213.58,742.66
214.04,740.46
214.49,738.29
214.94,736.23
215.39,734.39
215.84,732.87
216.30,731.72
216.75,731.00
217.20,730.74
217.65,730.93
218.11,731.53
218.56,732.49
219.01,733.75
219.46,735.20
219.91,736.75
220.37,738.30
220.82,739.76
221.27,741.02
221.72,742.00
222.17,742.63
222.63,742.89
223.08,742.74
223.53,742.21
223.98,741.34
224.43,740.20
224.88,738.91
225.34,737.56
225.79,736.27
226.24,735.14
226.69,734.24
227.14,733.62
227.59,733.29
228.04,733.21
228.50,733.32
228.95,733.57
229.40,733.87
229.85,734.16
230.30,734.40
230.75,734.56
231.20,734.67
231.66,734.75
232.11,734.86
232.56,735.06
233.01,735.42
233.46,735.97
233.91,736.74
234.36,737.76
234.81,739.00
235.26,740.46
235.71,742.08
236.17,743.83
236.62,745.65
237.07,747.48
237.52,749.25
237.97,750.88
238.42,752.31
238.87,753.44
239.32,754.21
239.77,754.58
240.22,754.50
240.67,753.99
241.12,753.10
241.57,751.88
242.02,750.46
242.47,748.96
242.92,747.49
243.37,746.19
243.82,745.14
244.27,744.40
244.72,743.99
245.18,743.90
245.63,744.08
246.08,744.48
246.53,745.00
246.98,745.57
247.43,746.13
247.88,746.61
248.33,746.98
248.78,747.21
249.23,747.30
249.68,747.25
250.12,747.07
250.57,746.80
251.02,746.46
251.47,746.07
251.92,745.67
252.37,745.27
252.82,744.91
253.27,744.59
253.72,744.33
254.17,744.14
254.62,744.02
255.07,743.97
255.52,743.99
255.97,744.07
256.42,744.20
256.87,744.36
257.32,744.54
257.77,744.72
258.22,744.87
258.66,744.96
259.11,744.99
259.56,744.93
260.01,744.80
260.46,744.60
260.91,744.35
261.36,744.12
261.81,743.94
262.26,743.88
262.71,744.01
263.15,744.41
263.60,745.11
264.05,746.17
264.50,747.57
264.95,749.30
265.40,751.29
265.85,753.43
266.30,755.61
266.74,757.69
267.19,759.53
267.64,761.01
268.09,762.04
268.54,762.57
268.99,762.60
269.43,762.16
269.88,761.33
270.33,760.22
270.78,758.95
271.23,757.62
271.68,756.33
272.12,755.17
272.57,754.19
273.02,753.41
273.47,752.84
273.92,752.48
274.36,752.32
274.81,752.34
275.26,752.51
275.71,752.82
276.16,753.23
276.60,753.73
277.05,754.29
277.50,754.88
277.95,755.49
278.39,756.10
278.84,756.72
279.29,757.35
279.74,758.01
280.19,758.71
280.63,759.46
281.08,760.25
281.53,761.05
281.98,761.82
282.42,762.46
282.87,762.87
283.32,762.95
283.76,762.58
284.21,761.68
284.66,760.20
285.11,758.14
285.55,755.58
286.00,752.62
286.45,749.44
286.89,746.21
287.34,743.14
287.79,740.43
288.23,738.25
288.68,736.71
289.13,735.89
289.58,735.83
290.02,736.51
290.47,737.87
290.92,739.81
291.36,742.22
291.81,744.94
292.26,747.84
292.70,750.72
293.15,753.44
293.60,755.83
294.04,757.75
294.49,759.10
294.93,759.79
295.38,759.83
295.83,759.25
296.27,758.14
296.72,756.64
297.17,754.92
297.61,753.16
298.06,751.53
298.50,750.20
298.95,749.26
299.40,748.79
299.84,748.81
300.29,749.30
300.73,750.21
301.18,751.49
301.63,753.03
302.07,754.77
302.52,756.61
302.96,758.47
303.41,760.28
303.85,761.95
304.30,763.40
304.75,764.57
305.19,765.38
305.64,765.80
306.08,765.80
306.53,765.38
306.97,764.56
307.42,763.39
307.86,761.94
308.31,760.28
308.75,758.48
309.20,756.63
309.65,754.78
310.09,753.00
310.54,751.34
310.98,749.85
311.43,748.58
311.87,747.59
312.32,746.91
312.76,746.62
313.21,746.73
313.65,747.28
314.10,748.23
314.54,749.55
314.99,751.13
315.43,752.86
315.87,754.61
316.32,756.23
316.76,757.59
317.21,758.62
317.65,759.25
318.10,759.47
318.54,759.32
318.99,758.86
319.43,758.18
319.88,757.37
320.32,756.51
320.76,755.68
321.21,754.93
321.65,754.28
322.10,753.75
322.54,753.31
322.99,752.95
323.43,752.65
323.87,752.37
324.32,752.10
324.76,751.82
325.21,751.54
325.65,751.25
326.09,750.97
326.54,750.70
326.98,750.45
327.42,750.23
327.87,750.03
328.31,749.85
328.76,749.69
329.20,749.55
329.64,749.46
330.09,749.43
330.53,749.51
330.97,749.73
331.42,750.12
331.86,750.68
332.30,751.42
332.75,752.29
333.19,753.25
333.63,754.23
334.08,755.16
334.52,755.97
334.96,756.63
335.41,757.09
335.85,757.35
336.29,757.44
336.74,757.37
337.18,757.19
337.62,756.93
338.06,756.63
338.51,756.31
338.95,755.98
339.39,755.64
339.84,755.26
340.28,754.85
340.72,754.40
341.16,753.90
341.61,753.36
342.05,752.81
342.49,752.28
342.93,751.79
343.38,751.39
343.82,751.09
344.26,750.90
344.70,750.82
345.15,750.79
345.59,750.77
346.03,750.68
346.47,750.43
346.92,749.95
347.36,749.18
347.80,748.08
348.24,746.66
348.68,744.96
349.13,743.05
349.57,741.05
350.01,739.09
350.45,737.31
350.89,735.84
351.34,734.77
351.78,734.17
352.22,734.07
352.66,734.47
353.10,735.31
353.54,736.51
353.99,737.98
354.43,739.62
354.87,741.31
355.31,743.00
355.75,744.60
356.19,746.11
356.63,747.51
357.08,748.82
357.52,750.10
357.96,751.37
358.40,752.68
358.84,754.06
359.28,755.50
359.72,757.02
360.16,758.56
360.60,760.11
361.05,761.62
361.49,763.05
361.93,764.38
362.37,765.59
362.81,766.68
363.25,767.66
363.69,768.53
364.13,769.29
364.57,769.94
365.01,770.46
365.45,770.82
365.89,770.98
366.33,770.90
366.78,770.55
367.22,769.93
367.66,769.04
368.10,767.92
368.54,766.64
368.98,765.28
369.42,763.94
369.86,762.68
370.30,761.57
370.74,760.63
371.18,759.84
371.62,759.15
372.06,758.52
372.50,757.87
372.94,757.18
373.38,756.43
373.82,755.65
374.26,754.93
374.70,754.35
375.14,754.02
375.58,754.02
376.02,754.42
376.46,755.20
376.90,756.30
377.34,757.60
377.78,758.94
378.21,760.13
378.65,761.00
379.09,761.43
379.53,761.32
379.97,760.67
380.41,759.54
380.85,758.05
381.29,756.37
381.73,754.66
382.17,753.11
382.61,751.84
383.05,750.94
383.49,750.46
383.93,750.37
384.36,750.64
384.80,751.19
385.24,751.95
385.68,752.86
386.12,753.86
386.56,754.94
387.00,756.10
387.44,757.38
387.87,758.79
388.31,760.38
388.75,762.13
389.19,764.05
389.63,766.07
390.07,768.12
390.51,770.08
390.94,771.83
391.38,773.25
391.82,774.22
392.26,774.66
392.70,774.54
393.14,773.85
393.57,772.64
394.01,771.01
394.45,769.05
394.89,766.90
395.33,764.68
395.76,762.49
396.20,760.43
396.64,758.58
397.08,757.00
397.52,755.75
397.95,754.86
398.39,754.39
398.83,754.35
399.27,754.76
399.70,755.62
400.14,756.91
400.58,758.55
401.02,760.49
401.45,762.61
401.89,764.81
402.33,766.97
402.77,768.98
403.20,770.77
403.64,772.29
404.08,773.51
404.52,774.44
404.95,775.13
405.39,775.64
405.83,776.02
406.26,776.33
406.70,776.61
407.14,776.85
407.58,777.04
408.01,777.13
408.45,777.06
408.89,776.76
409.32,776.17
409.76,775.27
410.20,774.06
410.63,772.58
411.07,770.89
411.51,769.08
411.94,767.27
412.38,765.55
412.82,764.00
413.25,762.69
413.69,761.64
414.12,760.87
414.56,760.37
415.00,760.10
415.43,760.03
415.87,760.15
416.31,760.43
416.74,760.87
417.18,761.48
417.61,762.28
418.05,763.32
418.49,764.62
418.92,766.23
419.36,768.17
419.79,770.48
420.23,773.15
420.67,776.16
421.10,779.48
421.54,783.05
421.97,786.79
422.41,790.60
422.84,794.41
423.28,798.13
423.71,801.69
424.15,805.06
424.59,808.22
425.02,811.21
425.46,814.07
425.89,816.90
426.33,819.80
426.76,822.90
427.20,826.33
427.63,830.20
428.07,834.62
428.50,839.68
428.94,845.42
429.37,851.89
429.81,859.08
430.24,866.97
430.68,875.52
431.11,884.69
431.55,894.39
431.98,904.58
432.42,915.18
432.85,926.13
433.28,937.39
433.72,948.93
434.15,960.73
434.59,972.81
435.02,985.20
435.46,997.95
435.89,1011.14
436.33,1024.85
436.76,1039.18
437.19,1054.23
437.63,1070.08
438.06,1086.83
438.50,1104.57
438.93,1123.37
439.37,1143.32
439.80,1164.50
440.23,1186.98
440.67,1210.85
441.10,1236.20
441.53,1263.12
441.97,1291.72
442.40,1322.08
442.84,1354.34
443.27,1388.60
443.70,1425.00
444.14,1463.69
444.57,1504.84
445.00,1548.67
445.44,1595.38
445.87,1645.25
446.30,1698.55
446.74,1755.59
447.17,1816.66
447.60,1882.06
448.04,1952.06
448.47,2026.87
448.90,2106.60
449.34,2191.27
449.77,2280.76
450.20,2374.81
450.64,2473.03
451.07,2574.85
451.50,2679.60
451.93,2786.47
452.37,2894.57
452.80,3002.90
453.23,3110.39
453.67,3215.92
454.10,3318.27
454.53,3416.20
454.96,3508.44
455.40,3593.74
455.83,3670.87
456.26,3738.73
456.69,3796.35
457.13,3842.97
457.56,3878.07
457.99,3901.39
458.42,3912.99
458.86,3913.17
459.29,3902.56
459.72,3881.98
460.15,3852.50
460.58,3815.34
461.02,3771.83
461.45,3723.39
461.88,3671.43
462.31,3617.35
462.74,3562.48
463.18,3508.02
463.61,3455.07
464.04,3404.53
464.47,3357.19
464.90,3313.64
465.33,3274.32
465.77,3239.53
466.20,3209.41
466.63,3184.02
467.06,3163.29
467.49,3147.05
467.92,3135.08
468.35,3127.07
468.78,3122.64
469.22,3121.35
469.65,3122.70
470.08,3126.13
470.51,3131.05
470.94,3136.83
471.37,3142.85
471.80,3148.53
472.23,3153.35
472.66,3156.89
473.10,3158.84
473.53,3159.04
473.96,3157.46
474.39,3154.19
474.82,3149.42
475.25,3143.44
475.68,3136.57
476.11,3129.17
476.54,3121.62
476.97,3114.26
477.40,3107.41
477.83,3101.38
478.26,3096.39
478.69,3092.64
479.12,3090.30
479.55,3089.48
479.98,3090.28
480.41,3092.75
480.84,3096.97
481.27,3102.98
481.70,3110.84
482.13,3120.61
482.56,3132.34
482.99,3146.04
483.42,3161.71
483.85,3179.27
484.28,3198.58
484.71,3219.44
485.14,3241.56
485.57,3264.62
486.00,3288.28
486.43,3312.21
486.86,3336.13
487.29,3359.84
487.72,3383.24
488.15,3406.32
488.58,3429.14
489.01,3451.83
489.44,3474.50
489.87,3497.28
490.30,3520.20
490.72,3543.25
491.15,3566.34
491.58,3589.33
492.01,3612.08
492.44,3634.42
492.87,3656.26
493.30,3677.54
493.73,3698.29
494.16,3718.54
494.59,3738.39
495.01,3757.90
495.44,3777.10
495.87,3795.97
496.30,3814.44
496.73,3832.39
497.16,3849.71
497.59,3866.29
498.01,3882.09
498.44,3897.17
498.87,3911.65
499.30,3925.73
499.73,3939.68
500.16,3953.76
500.58,3968.22
501.01,3983.23
501.44,3998.88
501.87,4015.15
502.30,4031.91
502.72,4048.95
503.15,4066.02
503.58,4082.82
504.01,4099.11
504.44,4114.65
504.86,4129.30
505.29,4142.99
505.72,4155.72
506.15,4167.55
506.57,4178.59
507.00,4188.96
507.43,4198.76
507.86,4208.10
508.28,4217.02
508.71,4225.55
509.14,4233.68
509.57,4241.42
509.99,4248.74
510.42,4255.68
510.85,4262.27
511.27,4268.59
511.70,4274.76
512.13,4280.87
512.56,4287.02
512.98,4293.27
513.41,4299.62
513.84,4306.03
514.26,4312.41
514.69,4318.61
515.12,4324.50
515.54,4329.96
515.97,4334.91
516.40,4339.34
516.82,4343.32
517.25,4346.99
517.68,4350.53
518.10,4354.18
518.53,4358.15
518.95,4362.64
519.38,4367.75
519.81,4373.54
520.23,4379.95
520.66,4386.84
521.09,4393.98
521.51,4401.12
521.94,4407.97
522.36,4414.29
522.79,4419.88
523.22,4424.61
523.64,4428.46
524.07,4431.47
524.49,4433.80
524.92,4435.61
525.34,4437.10
525.77,4438.48
526.20,4439.88
526.62,4441.42
527.05,4443.12
527.47,4444.99
527.90,4446.97
528.32,4449.01
528.75,4451.04
529.17,4453.05
529.60,4455.04
530.02,4457.07
530.45,4459.20
530.87,4461.54
531.30,4464.17
531.72,4467.13
532.15,4470.43
532.57,4474.01
533.00,4477.76
533.42,4481.53
533.85,4485.16
534.27,4488.46
534.70,4491.33
535.12,4493.68
535.55,4495.53
535.97,4496.96
536.40,4498.13
536.82,4499.23
537.25,4500.49
537.67,4502.10
538.09,4504.22
538.52,4506.92
538.94,4510.21
539.37,4514.02
539.79,4518.20
540.22,4522.58
540.64,4526.96
541.06,4531.17
541.49,4535.05
541.91,4538.54
542.34,4541.61
542.76,4544.29
543.18,4546.70
543.61,4548.96
544.03,4551.23
544.46,4553.64
544.88,4556.34
545.30,4559.41
545.73,4562.90
546.15,4566.83
546.57,4571.15
547.00,4575.77
547.42,4580.58
547.84,4585.46
548.27,4590.26
548.69,4594.88
549.11,4599.20
549.54,4603.17
549.96,4606.76
550.38,4609.99
550.81,4612.91
551.23,4615.57
551.65,4618.04
552.07,4620.40
552.50,4622.68
552.92,4624.89
553.34,4627.01
553.77,4628.99
554.19,4630.72
554.61,4632.10
555.03,4633.01
555.46,4633.30
555.88,4632.88
556.30,4631.66
556.72,4629.60
557.15,4626.71
557.57,4623.06
557.99,4618.74
558.41,4613.93
558.84,4608.79
559.26,4603.50
559.68,4598.23
560.10,4593.11
560.52,4588.23
560.95,4583.61
561.37,4579.23
561.79,4575.04
562.21,4570.94
562.63,4566.84
563.06,4562.68
563.48,4558.41
563.90,4554.07
564.32,4549.74
564.74,4545.59
565.16,4541.83
565.58,4538.71
566.01,4536.52
566.43,4535.52
566.85,4535.92
567.27,4537.88
567.69,4541.44
568.11,4546.55
568.53,4553.05
568.96,4560.69
569.38,4569.12
569.80,4577.96
570.22,4586.79
570.64,4595.20
571.06,4602.80
571.48,4609.26
571.90,4614.28
572.32,4617.65
572.74,4619.21
573.16,4618.89
573.58,4616.67
574.01,4612.58
574.43,4606.76
574.85,4599.38
575.27,4590.68
575.69,4580.91
576.11,4570.39
576.53,4559.39
576.95,4548.19
577.37,4536.99
577.79,4525.94
578.21,4515.09
578.63,4504.45
579.05,4493.93
579.47,4483.41
579.89,4472.77
580.31,4461.87
580.73,4450.65
581.15,4439.09
581.57,4427.24
581.99,4415.25
582.41,4403.35
582.83,4391.81
583.25,4380.99
583.67,4371.24
584.09,4362.92
584.51,4356.33
584.93,4351.70
585.34,4349.17
585.76,4348.77
586.18,4350.39
586.60,4353.84
587.02,4358.87
587.44,4365.16
587.86,4372.41
588.28,4380.39
588.70,4388.92
589.12,4397.96
589.54,4407.55
589.95,4417.82
590.37,4428.96
590.79,4441.18
591.21,4454.67
591.63,4469.55
592.05,4485.87
592.47,4503.57
592.89,4522.50
593.30,4542.46
593.72,4563.17
594.14,4584.36
594.56,4605.75
594.98,4627.07
595.40,4648.08
595.81,4668.57
596.23,4688.31
596.65,4707.12
597.07,4724.78
597.49,4741.11
597.90,4755.93
598.32,4769.12
598.74,4780.60
599.16,4790.38
599.58,4798.54
599.99,4805.23
600.41,4810.69
600.83,4815.14
601.25,4818.81
601.66,4821.88
602.08,4824.48
602.50,4826.64
602.92,4828.30
603.33,4829.37
603.75,4829.68
604.17,4829.08
604.59,4827.45
605.00,4824.68
605.42,4820.75
605.84,4815.68
606.25,4809.56
606.67,4802.48
607.09,4794.56
607.51,4785.89
607.92,4776.54
608.34,4766.54
608.76,4755.92
609.17,4744.68
609.59,4732.83
610.01,4720.44
610.42,4707.62
610.84,4694.53
611.26,4681.39
611.67,4668.47
612.09,4656.01
612.51,4644.26
612.92,4633.36
613.34,4623.40
613.75,4614.36
614.17,4606.13
614.59,4598.51
615.00,4591.29
615.42,4584.23
615.83,4577.10
616.25,4569.72
616.67,4562.00
617.08,4553.87
617.50,4545.34
617.91,4536.45
618.33,4527.26
618.75,4517.87
619.16,4508.34
619.58,4498.76
619.99,4489.22
620.41,4479.79
620.82,4470.59
621.24,4461.72
621.65,4453.32
622.07,4445.51
622.48,4438.43
622.90,4432.16
623.31,4426.75
623.73,4422.19
624.14,4418.37
624.56,4415.11
624.97,4412.16
625.39,4409.21
625.80,4405.92
626.22,4401.97
626.63,4397.05
627.05,4390.93
627.46,4383.48
627.88,4374.66
628.29,4364.53
628.71,4353.26
629.12,4341.09
629.54,4328.32
629.95,4315.26
630.37,4302.24
630.78,4289.52
631.19,4277.32
631.61,4265.76
632.02,4254.89
632.44,4244.63
632.85,4234.85
633.26,4225.34
633.68,4215.82
634.09,4206.05
634.51,4195.76
634.92,4184.77
635.33,4172.91
635.75,4160.14
636.16,4146.45
636.57,4131.92
636.99,4116.64
637.40,4100.78
637.82,4084.48
638.23,4067.92
638.64,4051.25
639.06,4034.63
639.47,4018.22
639.88,4002.19
640.30,3986.70
640.71,3971.90
641.12,3957.91
641.53,3944.82
641.95,3932.63
642.36,3921.30
642.77,3910.67
643.19,3900.53
643.60,3890.61
644.01,3880.60
644.42,3870.18
644.84,3859.11
645.25,3847.17
645.66,3834.25
646.08,3820.35
646.49,3805.54
646.90,3789.98
647.31,3773.89
647.73,3757.53
648.14,3741.13
648.55,3724.91
648.96,3709.03
649.37,3693.56
649.79,3678.51
650.20,3663.81
650.61,3649.30
651.02,3634.78
651.43,3620.04
651.85,3604.85
652.26,3589.04
652.67,3572.47
653.08,3555.09
653.49,3536.94
653.90,3518.15
654.32,3498.90
654.73,3479.42
655.14,3459.97
655.55,3440.79
655.96,3422.06
656.37,3403.93
656.78,3386.44
657.20,3369.60
657.61,3353.34
658.02,3337.54
658.43,3322.09
658.84,3306.84
659.25,3291.66
659.66,3276.42
660.07,3261.01
660.48,3245.33
660.90,3229.28
661.31,3212.77
661.72,3195.75
662.13,3178.15
662.54,3159.99
662.95,3141.28
663.36,3122.12
663.77,3102.65
664.18,3083.02
664.59,3063.45
665.00,3044.13
665.41,3025.24
665.82,3006.94
666.23,2989.31
666.64,2972.39
667.05,2956.14
667.46,2940.47
667.87,2925.23
668.28,2910.27
668.69,2895.37
669.10,2880.36
669.51,2865.05
669.92,2849.30
670.33,2832.99
670.74,2816.03
671.15,2798.40
671.56,2780.10
671.97,2761.17
672.38,2741.72
672.79,2721.87
673.20,2701.78
673.61,2681.63
674.02,2661.63
674.42,2641.97
674.83,2622.80
675.24,2604.26
675.65,2586.40
676.06,2569.22
676.47,2552.65
676.88,2536.56
677.29,2520.78
677.70,2505.13
678.11,2489.43
678.51,2473.54
678.92,2457.38
679.33,2440.94
679.74,2424.25
680.15,2407.43
680.56,2390.61
680.97,2373.94
681.37,2357.58
681.78,2341.63
682.19,2326.17
682.60,2311.20
683.01,2296.67
683.42,2282.51
683.82,2268.58
684.23,2254.74
684.64,2240.85
685.05,2226.79
685.45,2212.48
685.86,2197.88
686.27,2183.00
686.68,2167.89
687.09,2152.62
687.49,2137.32
687.90,2122.09
688.31,2107.05
688.72,2092.29
689.12,2077.88
689.53,2063.86
689.94,2050.23
690.35,2036.97
690.75,2024.02
691.16,2011.29
691.57,1998.70
691.97,1986.15
692.38,1973.59
692.79,1960.95
693.20,1948.21
693.60,1935.39
694.01,1922.50
694.42,1909.60
694.82,1896.73
695.23,1883.91
695.64,1871.18
696.04,1858.53
696.45,1845.94
696.86,1833.39
697.26,1820.85
697.67,1808.30
698.07,1795.76
698.48,1783.24
698.89,1770.82
699.29,1758.56
699.70,1746.56
700.11,1734.92
700.51,1723.72
700.92,1713.01
701.32,1702.82
701.73,1693.13
702.14,1683.90
702.54,1675.03
702.95,1666.43
703.35,1657.98
703.76,1649.55
704.16,1641.06
704.57,1632.42
704.97,1623.61
705.38,1614.61
705.79,1605.44
706.19,1596.12
706.60,1586.70
707.00,1577.20
707.41,1567.64
707.81,1558.01
708.22,1548.29
708.62,1538.46
709.03,1528.49
709.43,1518.37
709.84,1508.10
710.24,1497.74
710.65,1487.35
711.05,1477.03
711.46,1466.88
711.86,1457.02
712.27,1447.55
712.67,1438.56
713.07,1430.10
713.48,1422.16
713.88,1414.72
714.29,1407.72
714.69,1401.07
715.10,1394.65
715.50,1388.35
715.90,1382.02
716.31,1375.56
716.71,1368.83
717.12,1361.76
717.52,1354.27
717.92,1346.37
718.33,1338.07
718.73,1329.45
719.14,1320.64
719.54,1311.78
719.94,1303.02
720.35,1294.51
720.75,1286.35
721.15,1278.60
721.56,1271.26
721.96,1264.28
722.36,1257.55
722.77,1250.96
723.17,1244.38
723.57,1237.72
723.98,1230.91
724.38,1223.94
724.78,1216.84
725.19,1209.68
725.59,1202.57
725.99,1195.63
726.39,1188.93
726.80,1182.56
727.20,1176.55
727.60,1170.89
728.00,1165.52
728.41,1160.38
728.81,1155.37
729.21,1150.39
729.61,1145.37
730.02,1140.26
730.42,1135.07
730.82,1129.82
731.22,1124.59
731.63,1119.47
732.03,1114.56
732.43,1109.97
732.83,1105.77
733.23,1101.97
733.64,1098.58
734.04,1095.54
734.44,1092.75
734.84,1090.10
735.24,1087.46
735.64,1084.71
736.05,1081.75
736.45,1078.51
736.85,1074.95
737.25,1071.05
737.65,1066.83
738.05,1062.33
738.45,1057.59
738.86,1052.67
739.26,1047.62
739.66,1042.51
