wavelength,counts
188.65,309.40
189.10,309.40
189.56,309.40
190.01,309.40
190.47,309.40
190.92,339.53
191.37,352.03
191.83,366.18
192.28,381.73
192.74,398.36
193.19,415.69
193.64,433.29
194.10,451.48
194.55,470.07
195.01,488.86
195.46,507.68
195.91,526.34
196.37,544.68
196.82,562.55
197.27,579.83
197.73,596.41
198.18,612.25
198.63,627.31
199.09,641.59
199.54,655.08
199.99,667.81
200.45,679.76
200.90,690.95
201.35,701.34
201.81,710.91
202.26,719.60
202.71,727.38
203.17,734.19
203.62,740.02
204.07,744.87
204.53,748.73
204.98,751.67
205.43,753.75
205.89,755.04
206.34,755.66
206.79,755.72
207.25,755.33
207.70,754.60
208.15,753.65
208.60,752.58
209.06,751.47
209.51,750.37
209.96,749.32
210.41,748.34
210.87,747.39
211.32,746.45
211.77,745.47
212.23,744.39
212.68,743.15
213.13,741.73
213.58,740.10
214.04,738.27
214.49,736.28
214.94,734.17
215.39,732.01
215.84,729.88
216.30,727.84
216.75,725.95
217.20,724.23
217.65,722.69
218.11,721.33
218.56,720.11
219.01,718.99
219.46,717.93
219.91,716.90
220.37,715.91
220.82,714.95
221.27,714.08
221.72,713.35
222.17,712.84
222.63,712.61
223.08,712.73
223.53,713.23
223.98,714.12
224.43,715.38
224.88,716.93
225.34,718.70
225.79,720.60
226.24,722.52
226.69,724.38
227.14,726.15
227.59,727.78
228.04,729.28
228.50,730.66
228.95,731.94
229.40,733.15
229.85,734.30
230.30,735.37
230.75,736.37
231.20,737.27
231.66,738.07
232.11,738.78
232.56,739.42
233.01,740.03
233.46,740.68
233.91,741.44
234.36,742.36
234.81,743.48
235.26,744.83
235.71,746.38
236.17,748.09
236.62,749.88
237.07,751.65
237.52,753.29
237.97,754.72
238.42,755.84
238.87,756.60
239.32,756.98
239.77,757.00
240.22,756.69
240.67,756.12
241.12,755.37
241.57,754.53
242.02,753.65
242.47,752.81
242.92,752.04
243.37,751.35
243.82,750.73
244.27,750.18
244.72,749.65
245.18,749.11
245.63,748.53
246.08,747.88
246.53,747.12
246.98,746.25
247.43,745.26
247.88,744.16
248.33,742.97
248.78,741.74
249.23,740.51
249.68,739.36
250.12,738.35
250.57,737.55
251.02,737.00
251.47,736.76
251.92,736.85
252.37,737.26
252.82,737.99
253.27,739.02
253.72,740.29
254.17,741.78
254.62,743.43
255.07,745.20
255.52,747.04
255.97,748.90
256.42,750.74
256.87,752.49
257.32,754.12
257.77,755.58
258.22,756.84
258.66,757.90
259.11,758.75
259.56,759.40
260.01,759.86
260.46,760.16
260.91,760.29
261.36,760.27
261.81,760.06
262.26,759.65
262.71,759.00
263.15,758.07
263.60,756.85
264.05,755.34
264.50,753.55
264.95,751.55
265.40,749.42
265.85,747.25
266.30,745.15
266.74,743.25
267.19,741.63
267.64,740.37
268.09,739.54
268.54,739.13
268.99,739.15
269.43,739.54
269.88,740.23
270.33,741.15
270.78,742.20
271.23,743.26
271.68,744.26
272.12,745.12
272.57,745.78
273.02,746.21
273.47,746.43
273.92,746.46
274.36,746.37
274.81,746.22
275.26,746.12
275.71,746.14
276.16,746.34
276.60,746.79
277.05,747.49
277.50,748.42
277.95,749.54
278.39,750.77
278.84,752.01
279.29,753.16
279.74,754.11
280.19,754.77
280.63,755.08
281.08,755.00
281.53,754.55
281.98,753.78
282.42,752.79
282.87,751.68
283.32,750.60
283.76,749.69
284.21,749.09
284.66,748.89
285.11,749.17
285.55,749.94
286.00,751.17
286.45,752.82
286.89,754.78
287.34,756.93
287.79,759.14
288.23,761.27
288.68,763.20
289.13,764.80
289.58,765.97
290.02,766.64
290.47,766.77
290.92,766.33
291.36,765.35
291.81,763.88
292.26,762.03
292.70,759.92
293.15,757.68
293.60,755.48
294.04,753.45
294.49,751.70
294.93,750.31
295.38,749.34
295.83,748.75
296.27,748.52
296.72,748.57
297.17,748.81
297.61,749.15
298.06,749.54
298.50,749.93
298.95,750.31
299.40,750.70
299.84,751.14
300.29,751.68
300.73,752.36
301.18,753.19
301.63,754.16
302.07,755.22
302.52,756.31
302.96,757.32
303.41,758.15
303.85,758.71
304.30,758.89
304.75,758.65
305.19,757.94
305.64,756.76
306.08,755.15
306.53,753.17
306.97,750.91
307.42,748.47
307.86,745.97
308.31,743.54
308.75,741.30
309.20,739.34
309.65,737.73
310.09,736.53
310.54,735.74
310.98,735.35
311.43,735.29
311.87,735.53
312.32,735.99
312.76,736.62
313.21,737.39
313.65,738.29
314.10,739.30
314.54,740.45
314.99,741.74
315.43,743.18
315.87,744.76
316.32,746.47
316.76,748.26
317.21,750.09
317.65,751.90
318.10,753.65
318.54,755.29
318.99,756.82
319.43,758.22
319.88,759.51
320.32,760.71
320.76,761.87
321.21,762.99
321.65,764.11
322.10,765.23
322.54,766.34
322.99,767.42
323.43,768.42
323.87,769.30
324.32,770.00
324.76,770.46
325.21,770.66
325.65,770.55
326.09,770.13
326.54,769.39
326.98,768.35
327.42,767.05
327.87,765.52
328.31,763.82
328.76,762.00
329.20,760.12
329.64,758.25
330.09,756.45
330.53,754.80
330.97,753.36
331.42,752.19
331.86,751.33
332.30,750.79
332.75,750.58
333.19,750.66
333.63,750.99
334.08,751.50
334.52,752.12
334.96,752.77
335.41,753.38
335.85,753.92
336.29,754.36
336.74,754.69
337.18,754.92
337.62,755.08
338.06,755.21
338.51,755.32
338.95,755.44
339.39,755.58
339.84,755.77
340.28,756.00
340.72,756.28
341.16,756.64
341.61,757.08
342.05,757.64
342.49,758.31
342.93,759.12
343.38,760.05
343.82,761.07
344.26,762.11
344.70,763.11
345.15,763.95
345.59,764.54
346.03,764.78
346.47,764.60
346.92,763.95
347.36,762.84
347.80,761.32
348.24,759.48
348.68,757.46
349.13,755.42
349.57,753.51
350.01,751.90
350.45,750.71
350.89,750.00
351.34,749.80
351.78,750.09
352.22,750.77
352.66,751.74
353.10,752.88
353.54,754.04
353.99,755.12
354.43,756.03
354.87,756.73
355.31,757.21
355.75,757.49
356.19,757.61
356.63,757.62
357.08,757.57
357.52,757.49
357.96,757.42
358.40,757.36
358.84,757.31
359.28,757.27
359.72,757.23
360.16,757.19
360.60,757.18
361.05,757.21
361.49,757.34
361.93,757.60
362.37,758.05
362.81,758.73
363.25,759.64
363.69,760.78
364.13,762.11
364.57,763.54
365.01,764.98
365.45,766.32
365.89,767.44
366.33,768.25
366.78,768.67
367.22,768.67
367.66,768.25
368.10,767.47
368.54,766.42
368.98,765.19
369.42,763.89
369.86,762.61
370.30,761.45
370.74,760.44
371.18,759.60
371.62,758.93
372.06,758.41
372.50,758.03
372.94,757.76
373.38,757.62
373.82,757.60
374.26,757.74
374.70,758.05
375.14,758.55
375.58,759.21
376.02,760.01
376.46,760.88
376.90,761.73
377.34,762.47
377.78,762.99
378.21,763.21
378.65,763.06
379.09,762.54
379.53,761.64
379.97,760.44
380.41,759.01
380.85,757.47
381.29,755.96
381.73,754.58
382.17,753.44
382.61,752.62
383.05,752.15
383.49,752.05
383.93,752.29
384.36,752.83
384.80,753.59
385.24,754.53
385.68,755.58
386.12,756.68
386.56,757.80
387.00,758.90
387.44,759.96
387.87,760.96
388.31,761.87
388.75,762.67
389.19,763.35
389.63,763.89
390.07,764.29
390.51,764.58
390.94,764.78
391.38,764.95
391.82,765.14
392.26,765.40
392.70,765.79
393.14,766.33
393.57,767.02
394.01,767.84
394.45,768.74
394.89,769.64
395.33,770.45
395.76,771.11
396.20,771.53
396.64,771.66
397.08,771.50
397.52,771.05
397.95,770.36
398.39,769.50
398.83,768.56
399.27,767.62
399.70,766.79
400.14,766.12
400.58,765.68
401.02,765.46
401.45,765.46
401.89,765.64
402.33,765.93
402.77,766.27
403.20,766.60
403.64,766.89
404.08,767.10
404.52,767.27
404.95,767.44
405.39,767.66
405.83,767.99
406.26,768.48
406.70,769.15
407.14,770.00
407.58,770.96
408.01,771.95
408.45,772.84
408.89,773.50
409.32,773.81
409.76,773.64
410.20,772.92
410.63,771.61
411.07,769.71
411.51,767.28
411.94,764.42
412.38,761.27
412.82,758.00
413.25,754.76
413.69,751.73
414.12,749.05
414.56,746.86
415.00,745.22
415.43,744.18
415.87,743.75
416.31,743.90
416.74,744.57
417.18,745.68
417.61,747.17
418.05,748.97
418.49,751.01
418.92,753.25
419.36,755.65
419.79,758.19
420.23,760.83
420.67,763.56
421.10,766.32
421.54,769.09
421.97,771.80
422.41,774.43
422.84,776.93
423.28,779.27
423.71,781.47
424.15,783.54
424.59,785.51
425.02,787.43
425.46,789.34
425.89,791.28
426.33,793.28
426.76,795.35
427.20,797.47
427.63,799.63
428.07,801.79
428.50,803.93
428.94,806.01
429.37,808.05
429.81,810.05
430.24,812.04
430.68,814.08
431.11,816.22
431.55,818.55
431.98,821.15
432.42,824.09
432.85,827.46
433.28,831.33
433.72,835.76
434.15,840.80
434.59,846.48
435.02,852.84
435.46,859.87
435.89,867.53
436.33,875.77
436.76,884.53
437.19,893.70
437.63,903.17
438.06,912.81
438.50,922.54
438.93,932.25
439.37,941.92
439.80,951.55
440.23,961.21
440.67,971.01
441.10,981.14
441.53,991.79
441.97,1003.19
442.40,1015.56
442.84,1029.09
443.27,1043.96
443.70,1060.29
444.14,1078.16
444.57,1097.65
445.00,1118.79
445.44,1141.62
445.87,1166.17
446.30,1192.49
446.74,1220.61
447.17,1250.60
447.60,1282.48
448.04,1316.27
448.47,1351.97
448.90,1389.51
449.34,1428.80
449.77,1469.71
450.20,1512.05
450.64,1555.62
451.07,1600.17
451.50,1645.45
451.93,1691.16
452.37,1736.99
452.80,1782.62
453.23,1827.69
453.67,1871.81
454.10,1914.56
454.53,1955.52
454.96,1994.21
455.40,2030.18
455.83,2062.97
456.26,2092.16
456.69,2117.38
457.13,2138.29
457.56,2154.67
457.99,2166.37
458.42,2173.32
458.86,2175.59
459.29,2173.31
459.72,2166.70
460.15,2156.10
460.58,2141.88
461.02,2124.48
461.45,2104.40
461.88,2082.14
462.31,2058.25
462.74,2033.23
463.18,2007.64
463.61,1981.96
464.04,1956.70
464.47,1932.32
464.90,1909.26
465.33,1887.91
465.77,1868.63
466.20,1851.71
466.63,1837.37
467.06,1825.77
467.49,1816.94
467.92,1810.83
468.35,1807.29
468.78,1806.06
469.22,1806.80
469.65,1809.11
470.08,1812.55
470.51,1816.69
470.94,1821.08
471.37,1825.34
471.80,1829.16
472.23,1832.28
472.66,1834.52
473.10,1835.81
473.53,1836.11
473.96,1835.45
474.39,1833.94
474.82,1831.69
475.25,1828.86
475.68,1825.60
476.11,1822.07
476.54,1818.40
476.97,1814.71
477.40,1811.08
477.83,1807.57
478.26,1804.24
478.69,1801.13
479.12,1798.32
479.55,1795.90
479.98,1794.02
480.41,1792.85
480.84,1792.60
481.27,1793.47
481.70,1795.64
482.13,1799.27
482.56,1804.42
482.99,1811.10
483.42,1819.22
483.85,1828.64
484.28,1839.19
484.71,1850.65
485.14,1862.85
485.57,1875.63
486.00,1888.88
486.43,1902.53
486.86,1916.52
487.29,1930.81
487.72,1945.33
488.15,1959.99
488.58,1974.62
489.01,1989.06
489.44,2003.09
489.87,2016.50
490.30,2029.13
490.72,2040.87
491.15,2051.68
491.58,2061.61
492.01,2070.77
492.44,2079.32
492.87,2087.47
493.30,2095.40
493.73,2103.30
494.16,2111.30
494.59,2119.52
495.01,2127.99
495.44,2136.75
495.87,2145.78
496.30,2155.04
496.73,2164.46
497.16,2173.97
497.59,2183.47
498.01,2192.86
498.44,2202.01
498.87,2210.83
499.30,2219.20
499.73,2227.05
500.16,2234.33
500.58,2241.04
501.01,2247.21
501.44,2252.91
501.87,2258.25
502.30,2263.34
502.72,2268.33
503.15,2273.31
503.58,2278.36
504.01,2283.55
504.44,2288.88
504.86,2294.32
505.29,2299.84
505.72,2305.37
506.15,2310.88
506.57,2316.32
507.00,2321.67
507.43,2326.95
507.86,2332.17
508.28,2337.38
508.71,2342.59
509.14,2347.81
509.57,2353.03
509.99,2358.20
510.42,2363.25
510.85,2368.08
511.27,2372.59
511.70,2376.67
512.13,2380.24
512.56,2383.25
512.98,2385.66
513.41,2387.50
513.84,2388.82
514.26,2389.71
514.69,2390.30
515.12,2390.72
515.54,2391.12
515.97,2391.66
516.40,2392.44
516.82,2393.57
517.25,2395.08
517.68,2396.98
518.10,2399.18
518.53,2401.60
518.95,2404.08
519.38,2406.47
519.81,2408.62
520.23,2410.39
520.66,2411.71
521.09,2412.57
521.51,2412.98
521.94,2413.05
522.36,2412.87
522.79,2412.59
523.22,2412.34
523.64,2412.20
524.07,2412.25
524.49,2412.48
524.92,2412.87
525.34,2413.33
525.77,2413.77
526.20,2414.08
526.62,2414.16
527.05,2413.96
527.47,2413.45
527.90,2412.66
528.32,2411.70
528.75,2410.68
529.17,2409.78
529.60,2409.20
530.02,2409.13
530.45,2409.75
530.87,2411.21
531.30,2413.62
531.72,2417.01
532.15,2421.36
532.57,2426.57
533.00,2432.50
533.42,2438.94
533.85,2445.65
534.27,2452.37
534.70,2458.86
535.12,2464.87
535.55,2470.21
535.97,2474.74
536.40,2478.35
536.82,2481.03
537.25,2482.79
537.67,2483.71
538.09,2483.92
538.52,2483.55
538.94,2482.80
539.37,2481.83
539.79,2480.85
540.22,2480.01
540.64,2479.48
541.06,2479.35
541.49,2479.72
541.91,2480.60
542.34,2481.99
542.76,2483.82
543.18,2486.00
543.61,2488.39
544.03,2490.84
544.46,2493.18
544.88,2495.29
545.30,2497.01
545.73,2498.26
546.15,2498.99
546.57,2499.18
547.00,2498.88
547.42,2498.17
547.84,2497.16
548.27,2496.00
548.69,2494.82
549.11,2493.76
549.54,2492.94
549.96,2492.44
550.38,2492.30
550.81,2492.53
551.23,2493.12
551.65,2494.02
552.07,2495.16
552.50,2496.48
552.92,2497.92
553.34,2499.40
553.77,2500.87
554.19,2502.27
554.61,2503.56
555.03,2504.69
555.46,2505.63
555.88,2506.35
556.30,2506.84
556.72,2507.10
557.15,2507.15
557.57,2507.03
557.99,2506.78
558.41,2506.45
558.84,2506.09
559.26,2505.73
559.68,2505.39
560.10,2505.11
560.52,2504.88
560.95,2504.73
561.37,2504.65
561.79,2504.68
562.21,2504.83
562.63,2505.15
563.06,2505.65
563.48,2506.37
563.90,2507.31
564.32,2508.47
564.74,2509.79
565.16,2511.24
565.58,2512.73
566.01,2514.18
566.43,2515.53
566.85,2516.70
567.27,2517.66
567.69,2518.37
568.11,2518.83
568.53,2519.09
568.96,2519.15
569.38,2519.08
569.80,2518.91
570.22,2518.65
570.64,2518.32
571.06,2517.91
571.48,2517.39
571.90,2516.72
572.32,2515.86
572.74,2514.78
573.16,2513.46
573.58,2511.90
574.01,2510.12
574.43,2508.15
574.85,2506.02
575.27,2503.79
575.69,2501.48
576.11,2499.10
576.53,2496.64
576.95,2494.05
577.37,2491.29
577.79,2488.30
578.21,2485.01
578.63,2481.36
579.05,2477.34
579.47,2472.93
579.89,2468.14
580.31,2463.01
580.73,2457.63
581.15,2452.06
581.57,2446.40
581.99,2440.76
582.41,2435.24
582.83,2429.93
583.25,2424.89
583.67,2420.19
584.09,2415.87
584.51,2411.94
584.93,2408.42
585.34,2405.30
585.76,2402.60
586.18,2400.35
586.60,2398.58
587.02,2397.34
587.44,2396.71
587.86,2396.76
588.28,2397.55
588.70,2399.13
589.12,2401.55
589.54,2404.80
589.95,2408.88
590.37,2413.74
590.79,2419.32
591.21,2425.55
591.63,2432.36
592.05,2439.66
592.47,2447.39
592.89,2455.49
593.30,2463.92
593.72,2472.63
594.14,2481.57
594.56,2490.69
594.98,2499.92
595.40,2509.15
595.81,2518.28
596.23,2527.15
596.65,2535.62
597.07,2543.53
597.49,2550.74
597.90,2557.16
598.32,2562.70
598.74,2567.33
599.16,2571.08
599.58,2573.96
599.99,2576.03
600.41,2577.38
600.83,2578.05
601.25,2578.13
601.66,2577.68
602.08,2576.77
602.50,2575.48
602.92,2573.90
603.33,2572.13
603.75,2570.27
604.17,2568.42
604.59,2566.67
605.00,2565.08
605.42,2563.69
605.84,2562.49
606.25,2561.46
606.67,2560.53
607.09,2559.64
607.51,2558.69
607.92,2557.60
608.34,2556.31
608.76,2554.74
609.17,2552.84
609.59,2550.58
610.01,2547.93
610.42,2544.89
610.84,2541.47
611.26,2537.71
611.67,2533.65
612.09,2529.36
612.51,2524.95
612.92,2520.52
613.34,2516.16
613.75,2511.96
614.17,2507.99
614.59,2504.26
615.00,2500.76
615.42,2497.42
615.83,2494.17
616.25,2490.90
616.67,2487.52
617.08,2483.98
617.50,2480.24
617.91,2476.33
618.33,2472.30
618.75,2468.24
619.16,2464.25
619.58,2460.42
619.99,2456.84
620.41,2453.55
620.82,2450.57
621.24,2447.87
621.65,2445.41
622.07,2443.12
622.48,2440.94
622.90,2438.79
623.31,2436.63
623.73,2434.42
624.14,2432.16
624.56,2429.86
624.97,2427.56
625.39,2425.33
625.80,2423.24
626.22,2421.39
626.63,2419.88
627.05,2418.77
627.46,2418.13
627.88,2417.94
628.29,2418.16
628.71,2418.68
629.12,2419.32
629.54,2419.86
629.95,2420.08
630.37,2419.72
630.78,2418.57
631.19,2416.46
631.61,2413.26
632.02,2408.92
632.44,2403.45
632.85,2396.90
633.26,2389.37
633.68,2380.99
634.09,2371.91
634.51,2362.30
634.92,2352.32
635.33,2342.17
635.75,2332.01
636.16,2322.05
636.57,2312.47
636.99,2303.42
637.40,2295.05
637.82,2287.45
638.23,2280.69
638.64,2274.73
639.06,2269.50
639.47,2264.86
639.88,2260.60
640.30,2256.48
640.71,2252.24
641.12,2247.61
641.53,2242.37
641.95,2236.35
642.36,2229.45
642.77,2221.67
643.19,2213.09
643.60,2203.91
644.01,2194.37
644.42,2184.77
644.84,2175.41
645.25,2166.57
645.66,2158.47
646.08,2151.26
646.49,2145.00
646.90,2139.64
647.31,2135.07
647.73,2131.10
648.14,2127.51
648.55,2124.06
648.96,2120.53
649.37,2116.69
649.79,2112.37
650.20,2107.44
650.61,2101.82
651.02,2095.45
651.43,2088.32
651.85,2080.46
652.26,2071.94
652.67,2062.86
653.08,2053.34
653.49,2043.52
653.90,2033.55
654.32,2023.58
654.73,2013.74
655.14,2004.13
655.55,1994.82
655.96,1985.83
656.37,1977.17
656.78,1968.77
657.20,1960.59
657.61,1952.56
658.02,1944.59
658.43,1936.64
658.84,1928.64
659.25,1920.57
659.66,1912.39
660.07,1904.10
660.48,1895.70
660.90,1887.21
661.31,1878.67
661.72,1870.10
662.13,1861.57
662.54,1853.14
662.95,1844.85
663.36,1836.74
663.77,1828.84
664.18,1821.14
664.59,1813.62
665.00,1806.24
665.41,1798.97
665.82,1791.77
666.23,1784.62
666.64,1777.54
667.05,1770.57
667.46,1763.74
667.87,1757.12
668.28,1750.75
668.69,1744.63
669.10,1738.76
669.51,1733.09
669.92,1727.55
670.33,1722.05
670.74,1716.51
671.15,1710.87
671.56,1705.07
671.97,1699.11
672.38,1693.00
672.79,1686.76
673.20,1680.41
673.61,1673.97
674.02,1667.45
674.42,1660.80
674.83,1653.98
675.24,1646.91
675.65,1639.52
676.06,1631.73
676.47,1623.47
676.88,1614.73
677.29,1605.51
677.70,1595.86
678.11,1585.87
678.51,1575.66
678.92,1565.34
679.33,1555.07
679.74,1544.95
680.15,1535.09
680.56,1525.57
680.97,1516.41
681.37,1507.63
681.78,1499.18
682.19,1491.04
682.60,1483.15
683.01,1475.45
683.42,1467.89
683.82,1460.42
684.23,1453.02
684.64,1445.65
685.05,1438.31
685.45,1430.98
685.86,1423.66
686.27,1416.36
686.68,1409.08
687.09,1401.83
687.49,1394.63
687.90,1387.48
688.31,1380.41
688.72,1373.43
689.12,1366.55
689.53,1359.78
689.94,1353.14
690.35,1346.65
690.75,1340.35
691.16,1334.25
691.57,1328.40
691.97,1322.82
692.38,1317.53
692.79,1312.51
693.20,1307.75
693.60,1303.19
694.01,1298.74
694.42,1294.33
694.82,1289.85
695.23,1285.22
695.64,1280.36
696.04,1275.21
696.45,1269.79
696.86,1264.09
697.26,1258.19
697.67,1252.15
698.07,1246.08
698.48,1240.07
698.89,1234.20
699.29,1228.52
699.70,1223.06
700.11,1217.81
700.51,1212.71
700.92,1207.69
701.32,1202.65
701.73,1197.46
702.14,1192.05
702.54,1186.34
702.95,1180.29
703.35,1173.92
703.76,1167.27
704.16,1160.45
704.57,1153.59
704.97,1146.81
705.38,1140.26
705.79,1134.05
706.19,1128.27
706.60,1122.98
707.00,1118.21
707.41,1113.93
707.81,1110.14
708.22,1106.79
708.62,1103.85
709.03,1101.28
709.43,1099.02
709.84,1097.04
710.24,1095.27
710.65,1093.63
711.05,1092.02
711.46,1090.34
711.86,1088.48
712.27,1086.33
712.67,1083.81
713.07,1080.86
713.48,1077.47
713.88,1073.65
714.29,1069.48
714.69,1065.04
715.10,1060.44
715.50,1055.80
715.90,1051.22
716.31,1046.77
716.71,1042.53
717.12,1038.52
717.52,1034.74
717.92,1031.17
718.33,1027.76
718.73,1024.48
719.14,1021.28
719.54,1018.11
719.94,1014.96
720.35,1011.81
720.75,1008.65
721.15,1005.49
721.56,1002.33
721.96,999.18
722.36,996.03
722.77,992.86
723.17,989.65
723.57,986.39
723.98,983.06
724.38,979.65
724.78,976.16
725.19,972.62
725.59,969.04
725.99,965.47
726.39,961.92
726.80,958.42
727.20,954.99
727.60,951.62
728.00,948.30
728.41,945.02
728.81,941.75
729.21,938.49
729.61,935.21
730.02,931.95
730.42,928.71
730.82,925.56
731.22,922.53
731.63,919.69
732.03,917.12
732.43,914.88
732.83,913.01
733.23,911.53
733.64,910.46
734.04,909.74
734.44,909.31
734.84,909.07
735.24,908.88
735.64,908.62
736.05,908.14
736.45,907.33
736.85,906.10
737.25,904.37
737.65,902.15
738.05,899.46
738.45,896.36
738.86,892.96
739.26,889.37
739.66,885.73
740.06,882.15
740.46,878.75
740.86,875.61
741.26,872.78
