wavelength,counts
188.65,268.55
189.10,268.55
189.56,268.55
190.01,268.55
190.47,268.55
190.92,303.02
191.37,317.39
191.83,333.67
192.28,351.61
192.74,370.85
193.19,390.95
193.64,411.43
194.10,432.66
194.55,454.47
195.01,476.63
195.46,498.97
195.91,521.26
196.37,543.31
196.82,564.87
197.27,585.71
197.73,605.63
198.18,624.42
198.63,641.90
199.09,657.95
199.54,672.47
199.99,685.43
200.45,696.84
200.90,706.77
201.35,715.32
201.81,722.62
202.26,728.81
202.71,734.03
203.17,738.40
203.62,742.04
204.07,745.01
204.53,747.38
204.98,749.19
205.43,750.46
205.89,751.24
206.34,751.58
206.79,751.52
207.25,751.14
207.70,750.51
208.15,749.67
208.60,748.69
209.06,747.60
209.51,746.42
209.96,745.14
210.41,743.76
210.87,742.29
211.32,740.72
211.77,739.09
212.23,737.42
212.68,735.79
213.13,734.27
213.58,732.92
214.04,731.82
214.49,730.99
214.94,730.46
215.39,730.20
215.84,730.19
216.30,730.36
216.75,730.62
217.20,730.92
217.65,731.16
218.11,731.30
218.56,731.32
219.01,731.21
219.46,730.99
219.91,730.72
220.37,730.47
220.82,730.32
221.27,730.34
221.72,730.62
222.17,731.20
222.63,732.10
223.08,733.30
223.53,734.77
223.98,736.42
224.43,738.15
224.88,739.87
225.34,741.47
225.79,742.87
226.24,744.02
226.69,744.90
227.14,745.52
227.59,745.94
228.04,746.22
228.50,746.44
228.95,746.66
229.40,746.96
229.85,747.38
230.30,747.95
230.75,748.68
231.20,749.53
231.66,750.46
232.11,751.41
232.56,752.30
233.01,753.05
233.46,753.60
233.91,753.87
234.36,753.83
234.81,753.45
235.26,752.76
235.71,751.79
236.17,750.60
236.62,749.28
237.07,747.90
237.52,746.55
237.97,745.31
238.42,744.22
238.87,743.34
239.32,742.69
239.77,742.27
240.22,742.09
240.67,742.12
241.12,742.35
241.57,742.71
242.02,743.16
242.47,743.61
242.92,743.99
243.37,744.21
243.82,744.18
244.27,743.85
244.72,743.18
245.18,742.17
245.63,740.87
246.08,739.36
246.53,737.77
246.98,736.23
247.43,734.89
247.88,733.87
248.33,733.29
248.78,733.19
249.23,733.61
249.68,734.50
250.12,735.82
250.57,737.50
251.02,739.42
251.47,741.51
251.92,743.69
252.37,745.86
252.82,747.96
253.27,749.92
253.72,751.69
254.17,753.21
254.62,754.41
255.07,755.26
255.52,755.73
255.97,755.82
256.42,755.53
256.87,754.93
257.32,754.08
257.77,753.08
258.22,752.03
258.66,751.02
259.11,750.15
259.56,749.48
260.01,749.04
260.46,748.83
260.91,748.80
261.36,748.88
261.81,748.99
262.26,749.01
262.71,748.85
263.15,748.41
263.60,747.66
264.05,746.56
264.50,745.16
264.95,743.51
265.40,741.72
265.85,739.91
266.30,738.21
266.74,736.74
267.19,735.60
267.64,734.88
268.09,734.62
268.54,734.82
268.99,735.49
269.43,736.57
269.88,738.01
270.33,739.73
270.78,741.64
271.23,743.64
271.68,745.62
272.12,747.47
272.57,749.11
273.02,750.45
273.47,751.44
273.92,752.06
274.36,752.32
274.81,752.28
275.26,752.01
275.71,751.61
276.16,751.18
276.60,750.82
277.05,750.60
277.50,750.59
277.95,750.80
278.39,751.26
278.84,751.95
279.29,752.85
279.74,753.90
280.19,755.08
280.63,756.33
281.08,757.60
281.53,758.84
281.98,759.98
282.42,760.96
282.87,761.72
283.32,762.21
283.76,762.40
284.21,762.26
284.66,761.79
285.11,761.02
285.55,759.98
286.00,758.74
286.45,757.37
286.89,755.96
287.34,754.58
287.79,753.33
288.23,752.26
288.68,751.44
289.13,750.91
289.58,750.68
290.02,750.74
290.47,751.05
290.92,751.59
291.36,752.28
291.81,753.08
292.26,753.93
292.70,754.82
293.15,755.71
293.60,756.62
294.04,757.55
294.49,758.52
294.93,759.55
295.38,760.62
295.83,761.73
296.27,762.85
296.72,763.93
297.17,764.92
297.61,765.77
298.06,766.43
298.50,766.87
298.95,767.08
299.40,767.04
299.84,766.78
300.29,766.32
300.73,765.69
301.18,764.94
301.63,764.08
302.07,763.16
302.52,762.19
302.96,761.17
303.41,760.11
303.85,758.99
304.30,757.79
304.75,756.50
305.19,755.10
305.64,753.59
306.08,751.97
306.53,750.26
306.97,748.49
307.42,746.72
307.86,745.00
308.31,743.41
308.75,742.02
309.20,740.92
309.65,740.18
310.09,739.84
310.54,739.93
310.98,740.46
311.43,741.39
311.87,742.66
312.32,744.20
312.76,745.90
313.21,747.66
313.65,749.37
314.10,750.97
314.54,752.38
314.99,753.58
315.43,754.55
315.87,755.32
316.32,755.91
316.76,756.36
317.21,756.71
317.65,756.98
318.10,757.19
318.54,757.35
318.99,757.45
319.43,757.49
319.88,757.45
320.32,757.35
320.76,757.21
321.21,757.05
321.65,756.91
322.10,756.83
322.54,756.84
322.99,756.96
323.43,757.17
323.87,757.45
324.32,757.77
324.76,758.06
325.21,758.28
325.65,758.38
326.09,758.36
326.54,758.20
326.98,757.94
327.42,757.63
327.87,757.33
328.31,757.08
328.76,756.95
329.20,756.97
329.64,757.14
330.09,757.45
330.53,757.89
330.97,758.41
331.42,758.97
331.86,759.54
332.30,760.08
332.75,760.59
333.19,761.06
333.63,761.48
334.08,761.87
334.52,762.22
334.96,762.53
335.41,762.80
335.85,763.00
336.29,763.13
336.74,763.15
337.18,763.04
337.62,762.79
338.06,762.39
338.51,761.85
338.95,761.16
339.39,760.36
339.84,759.48
340.28,758.54
340.72,757.57
341.16,756.58
341.61,755.60
342.05,754.60
342.49,753.59
342.93,752.53
343.38,751.41
343.82,750.23
344.26,748.99
344.70,747.74
345.15,746.54
345.59,745.47
346.03,744.65
346.47,744.17
346.92,744.15
347.36,744.66
347.80,745.74
348.24,747.40
348.68,749.59
349.13,752.23
349.57,755.19
350.01,758.32
350.45,761.46
350.89,764.45
351.34,767.14
351.78,769.41
352.22,771.18
352.66,772.39
353.10,773.05
353.54,773.20
353.99,772.89
354.43,772.21
354.87,771.26
355.31,770.14
355.75,768.94
356.19,767.72
356.63,766.54
357.08,765.41
357.52,764.35
357.96,763.34
358.40,762.37
358.84,761.44
359.28,760.54
359.72,759.70
360.16,758.95
360.60,758.35
361.05,757.98
361.49,757.93
361.93,758.25
362.37,759.02
362.81,760.25
363.25,761.93
363.69,764.00
364.13,766.35
364.57,768.83
365.01,771.27
365.45,773.52
365.89,775.40
366.33,776.81
366.78,777.67
367.22,777.98
367.66,777.77
368.10,777.12
368.54,776.17
368.98,775.02
369.42,773.81
369.86,772.63
370.30,771.52
370.74,770.53
371.18,769.62
371.62,768.77
372.06,767.94
372.50,767.08
372.94,766.19
373.38,765.28
373.82,764.38
374.26,763.57
374.70,762.92
375.14,762.53
375.58,762.47
376.02,762.77
376.46,763.45
376.90,764.45
377.34,765.71
377.78,767.09
378.21,768.46
378.65,769.66
379.09,770.56
379.53,771.02
379.97,770.98
380.41,770.40
380.85,769.29
381.29,767.71
381.73,765.75
382.17,763.55
382.61,761.24
383.05,758.98
383.49,756.89
383.93,755.10
384.36,753.69
384.80,752.72
385.24,752.20
385.68,752.11
386.12,752.39
386.56,752.94
387.00,753.69
387.44,754.51
387.87,755.33
388.31,756.06
388.75,756.68
389.19,757.16
389.63,757.52
390.07,757.79
390.51,758.01
390.94,758.22
391.38,758.45
391.82,758.72
392.26,759.03
392.70,759.36
393.14,759.68
393.57,759.97
394.01,760.20
394.45,760.36
394.89,760.45
395.33,760.46
395.76,760.41
396.20,760.34
396.64,760.24
397.08,760.16
397.52,760.10
397.95,760.08
398.39,760.11
398.83,760.20
399.27,760.35
399.70,760.56
400.14,760.86
400.58,761.24
401.02,761.70
401.45,762.25
401.89,762.85
402.33,763.49
402.77,764.12
403.20,764.68
403.64,765.12
404.08,765.39
404.52,765.45
404.95,765.28
405.39,764.91
405.83,764.36
406.26,763.70
406.70,763.00
407.14,762.31
407.58,761.70
408.01,761.19
408.45,760.79
408.89,760.49
409.32,760.27
409.76,760.08
410.20,759.89
410.63,759.68
411.07,759.43
411.51,759.16
411.94,758.86
412.38,758.56
412.82,758.29
413.25,758.04
413.69,757.84
414.12,757.69
414.56,757.59
415.00,757.56
415.43,757.61
415.87,757.77
416.31,758.08
416.74,758.57
417.18,759.29
417.61,760.28
418.05,761.56
418.49,763.17
418.92,765.12
419.36,767.39
419.79,769.99
420.23,772.88
420.67,776.04
421.10,779.43
421.54,782.98
421.97,786.62
422.41,790.27
422.84,793.80
423.28,797.11
423.71,800.06
424.15,802.54
424.59,804.46
425.02,805.73
425.46,806.36
425.89,806.36
426.33,805.83
426.76,804.89
427.20,803.71
427.63,802.45
428.07,801.31
428.50,800.43
428.94,799.94
429.37,799.94
429.81,800.48
430.24,801.58
430.68,803.26
431.11,805.51
431.55,808.33
431.98,811.73
432.42,815.75
432.85,820.41
433.28,825.75
433.72,831.78
434.15,838.49
434.59,845.86
435.02,853.81
435.46,862.23
435.89,871.01
436.33,880.00
436.76,889.08
437.19,898.15
437.63,907.14
438.06,916.02
438.50,924.82
438.93,933.60
439.37,942.45
439.80,951.48
440.23,960.84
440.67,970.65
441.10,981.04
441.53,992.15
441.97,1004.07
442.40,1016.92
442.84,1030.79
443.27,1045.77
443.70,1061.94
444.14,1079.37
444.57,1098.15
445.00,1118.34
445.44,1140.02
445.87,1163.26
446.30,1188.13
446.74,1214.71
447.17,1243.07
447.60,1273.28
448.04,1305.40
448.47,1339.48
448.90,1375.54
449.34,1413.55
449.77,1453.48
450.20,1495.23
450.64,1538.63
451.07,1583.48
451.50,1629.53
451.93,1676.44
452.37,1723.86
452.80,1771.32
453.23,1818.36
453.67,1864.43
454.10,1908.95
454.53,1951.33
454.96,1990.98
455.40,2027.33
455.83,2059.86
456.26,2088.12
456.69,2111.77
457.13,2130.56
457.56,2144.35
457.99,2153.14
458.42,2157.01
458.86,2156.15
459.29,2150.82
459.72,2141.38
460.15,2128.22
460.58,2111.81
461.02,2092.66
461.45,2071.31
461.88,2048.33
462.31,2024.32
462.74,1999.86
463.18,1975.54
463.61,1951.91
464.04,1929.46
464.47,1908.62
464.90,1889.73
465.33,1873.04
465.77,1858.69
466.20,1846.71
466.63,1837.06
467.06,1829.59
467.49,1824.11
467.92,1820.36
468.35,1818.11
468.78,1817.14
469.22,1817.23
469.65,1818.23
470.08,1820.04
470.51,1822.54
470.94,1825.68
471.37,1829.34
471.80,1833.40
472.23,1837.69
472.66,1842.00
473.10,1846.06
473.53,1849.61
473.96,1852.39
474.39,1854.20
474.82,1854.88
475.25,1854.42
475.68,1852.88
476.11,1850.43
476.54,1847.33
476.97,1843.89
477.40,1840.43
477.83,1837.26
478.26,1834.64
478.69,1832.76
479.12,1831.74
479.55,1831.60
479.98,1832.33
480.41,1833.86
480.84,1836.11
481.27,1839.01
481.70,1842.51
482.13,1846.59
482.56,1851.26
482.99,1856.54
483.42,1862.49
483.85,1869.14
484.28,1876.52
484.71,1884.65
485.14,1893.50
485.57,1903.02
486.00,1913.14
486.43,1923.74
486.86,1934.71
487.29,1945.92
487.72,1957.24
488.15,1968.57
488.58,1979.83
489.01,1990.98
489.44,2002.01
489.87,2012.96
490.30,2023.91
490.72,2034.95
491.15,2046.17
491.58,2057.62
492.01,2069.35
492.44,2081.29
492.87,2093.37
493.30,2105.42
493.73,2117.23
494.16,2128.59
494.59,2139.28
495.01,2149.11
495.44,2157.96
495.87,2165.78
496.30,2172.58
496.73,2178.47
497.16,2183.61
497.59,2188.19
498.01,2192.42
498.44,2196.51
498.87,2200.62
499.30,2204.90
499.73,2209.43
500.16,2214.25
500.58,2219.39
501.01,2224.84
501.44,2230.59
501.87,2236.64
502.30,2242.98
502.72,2249.63
503.15,2256.61
503.58,2263.94
504.01,2271.63
504.44,2279.64
504.86,2287.94
505.29,2296.43
505.72,2304.97
506.15,2313.40
506.57,2321.52
507.00,2329.14
507.43,2336.05
507.86,2342.11
508.28,2347.20
508.71,2351.27
509.14,2354.36
509.57,2356.56
509.99,2358.03
510.42,2358.97
510.85,2359.59
511.27,2360.12
511.70,2360.74
512.13,2361.59
512.56,2362.75
512.98,2364.27
513.41,2366.15
513.84,2368.35
514.26,2370.84
514.69,2373.56
515.12,2376.49
515.54,2379.61
515.97,2382.91
516.40,2386.38
516.82,2390.01
517.25,2393.75
517.68,2397.55
518.10,2401.32
518.53,2404.96
518.95,2408.35
519.38,2411.38
519.81,2413.93
520.23,2415.94
520.66,2417.35
521.09,2418.16
521.51,2418.41
521.94,2418.21
522.36,2417.68
522.79,2416.99
523.22,2416.33
523.64,2415.89
524.07,2415.86
524.49,2416.39
524.92,2417.59
525.34,2419.52
525.77,2422.17
526.20,2425.49
526.62,2429.35
527.05,2433.60
527.47,2438.08
527.90,2442.61
528.32,2447.04
528.75,2451.23
529.17,2455.10
529.60,2458.59
530.02,2461.71
530.45,2464.47
530.87,2466.94
531.30,2469.18
531.72,2471.29
532.15,2473.35
532.57,2475.44
533.00,2477.63
533.42,2479.95
533.85,2482.42
534.27,2485.03
534.70,2487.75
535.12,2490.51
535.55,2493.25
535.97,2495.86
536.40,2498.28
536.82,2500.42
537.25,2502.19
537.67,2503.54
538.09,2504.41
538.52,2504.78
538.94,2504.64
539.37,2504.04
539.79,2503.03
540.22,2501.71
540.64,2500.23
541.06,2498.74
541.49,2497.41
541.91,2496.40
542.34,2495.84
542.76,2495.83
543.18,2496.43
543.61,2497.63
544.03,2499.40
544.46,2501.64
544.88,2504.23
545.30,2507.05
545.73,2509.95
546.15,2512.81
546.57,2515.54
547.00,2518.04
547.42,2520.26
547.84,2522.19
548.27,2523.81
548.69,2525.14
549.11,2526.21
549.54,2527.07
549.96,2527.78
550.38,2528.38
550.81,2528.95
551.23,2529.55
551.65,2530.26
552.07,2531.13
552.50,2532.23
552.92,2533.58
553.34,2535.20
553.77,2537.05
554.19,2539.07
554.61,2541.15
555.03,2543.18
555.46,2545.01
555.88,2546.51
556.30,2547.56
556.72,2548.09
557.15,2548.09
557.57,2547.60
557.99,2546.71
558.41,2545.56
558.84,2544.28
559.26,2543.00
559.68,2541.81
560.10,2540.74
560.52,2539.76
560.95,2538.76
561.37,2537.59
561.79,2536.10
562.21,2534.11
562.63,2531.51
563.06,2528.25
563.48,2524.37
563.90,2520.00
564.32,2515.37
564.74,2510.79
565.16,2506.59
565.58,2503.14
566.01,2500.74
566.43,2499.63
566.85,2499.95
567.27,2501.71
567.69,2504.77
568.11,2508.89
568.53,2513.72
568.96,2518.87
569.38,2523.93
569.80,2528.53
570.22,2532.38
570.64,2535.30
571.06,2537.22
571.48,2538.20
571.90,2538.37
572.32,2537.94
572.74,2537.13
573.16,2536.15
573.58,2535.15
574.01,2534.22
574.43,2533.37
574.85,2532.55
575.27,2531.64
575.69,2530.48
576.11,2528.92
576.53,2526.81
576.95,2524.04
577.37,2520.54
577.79,2516.29
578.21,2511.34
578.63,2505.75
579.05,2499.63
579.47,2493.11
579.89,2486.35
580.31,2479.48
580.73,2472.66
581.15,2466.03
581.57,2459.70
581.99,2453.80
582.41,2448.43
582.83,2443.67
583.25,2439.58
583.67,2436.20
584.09,2433.55
584.51,2431.62
584.93,2430.36
585.34,2429.72
585.76,2429.57
586.18,2429.79
586.60,2430.25
587.02,2430.80
587.44,2431.31
587.86,2431.69
588.28,2431.89
588.70,2431.92
589.12,2431.85
589.54,2431.79
589.95,2431.90
590.37,2432.38
590.79,2433.42
591.21,2435.21
591.63,2437.89
592.05,2441.60
592.47,2446.39
592.89,2452.25
593.30,2459.14
593.72,2466.93
594.14,2475.45
594.56,2484.51
594.98,2493.90
595.40,2503.39
595.81,2512.82
596.23,2522.03
596.65,2530.92
597.07,2539.45
597.49,2547.60
597.90,2555.42
598.32,2562.91
598.74,2570.13
599.16,2577.04
599.58,2583.62
599.99,2589.77
600.41,2595.38
600.83,2600.29
601.25,2604.39
601.66,2607.55
602.08,2609.72
602.50,2610.89
602.92,2611.12
603.33,2610.55
603.75,2609.35
604.17,2607.71
604.59,2605.82
605.00,2603.84
605.42,2601.88
605.84,2599.98
606.25,2598.13
606.67,2596.25
607.09,2594.23
607.51,2591.97
607.92,2589.33
608.34,2586.24
608.76,2582.63
609.17,2578.49
609.59,2573.84
610.01,2568.72
610.42,2563.19
610.84,2557.32
611.26,2551.18
611.67,2544.87
612.09,2538.46
612.51,2532.07
612.92,2525.78
613.34,2519.72
613.75,2513.99
614.17,2508.70
614.59,2503.91
615.00,2499.66
615.42,2495.96
615.83,2492.80
616.25,2490.11
616.67,2487.84
617.08,2485.92
617.50,2484.27
617.91,2482.86
618.33,2481.63
618.75,2480.55
619.16,2479.57
619.58,2478.62
619.99,2477.65
620.41,2476.56
620.82,2475.26
621.24,2473.66
621.65,2471.70
622.07,2469.34
622.48,2466.60
622.90,2463.53
623.31,2460.20
623.73,2456.71
624.14,2453.13
624.56,2449.52
624.97,2445.89
625.39,2442.21
625.80,2438.39
626.22,2434.36
626.63,2430.02
627.05,2425.30
627.46,2420.16
627.88,2414.62
628.29,2408.71
628.71,2402.52
629.12,2396.14
629.54,2389.65
629.95,2383.12
630.37,2376.62
630.78,2370.18
631.19,2363.84
631.61,2357.63
632.02,2351.59
632.44,2345.76
632.85,2340.22
633.26,2335.01
633.68,2330.19
634.09,2325.80
634.51,2321.82
634.92,2318.24
635.33,2314.96
635.75,2311.90
636.16,2308.94
636.57,2305.94
636.99,2302.78
637.40,2299.37
637.82,2295.60
638.23,2291.43
638.64,2286.79
639.06,2281.66
639.47,2276.03
639.88,2269.88
640.30,2263.23
640.71,2256.11
641.12,2248.55
641.53,2240.63
641.95,2232.43
642.36,2224.08
642.77,2215.69
643.19,2207.39
643.60,2199.30
644.01,2191.52
644.42,2184.13
644.84,2177.20
645.25,2170.74
645.66,2164.76
646.08,2159.23
646.49,2154.10
646.90,2149.30
647.31,2144.75
647.73,2140.33
648.14,2135.94
648.55,2131.47
648.96,2126.80
649.37,2121.82
649.79,2116.47
650.20,2110.67
650.61,2104.39
651.02,2097.60
651.43,2090.32
651.85,2082.57
652.26,2074.39
652.67,2065.82
653.08,2056.92
653.49,2047.75
653.90,2038.36
654.32,2028.79
654.73,2019.11
655.14,2009.33
655.55,1999.52
655.96,1989.70
656.37,1979.92
656.78,1970.23
657.20,1960.66
657.61,1951.27
658.02,1942.08
658.43,1933.13
658.84,1924.44
659.25,1916.03
659.66,1907.90
660.07,1900.05
660.48,1892.46
660.90,1885.12
661.31,1878.01
661.72,1871.08
662.13,1864.32
662.54,1857.67
662.95,1851.11
663.36,1844.61
663.77,1838.16
664.18,1831.77
664.59,1825.47
665.00,1819.29
665.41,1813.27
665.82,1807.44
666.23,1801.81
666.64,1796.34
667.05,1790.95
667.46,1785.53
667.87,1779.94
668.28,1774.02
668.69,1767.63
669.10,1760.66
669.51,1753.05
669.92,1744.81
670.33,1736.01
670.74,1726.80
671.15,1717.35
671.56,1707.86
671.97,1698.54
672.38,1689.55
672.79,1681.01
673.20,1672.96
673.61,1665.40
674.02,1658.21
674.42,1651.25
674.83,1644.34
675.24,1637.27
675.65,1629.84
676.06,1621.88
676.47,1613.31
676.88,1604.07
677.29,1594.22
677.70,1583.87
678.11,1573.19
678.51,1562.41
678.92,1551.79
679.33,1541.55
679.74,1531.91
680.15,1523.01
680.56,1514.92
680.97,1507.62
681.37,1500.98
681.78,1494.84
682.19,1488.93
682.60,1483.01
683.01,1476.81
683.42,1470.13
683.82,1462.84
684.23,1454.88
684.64,1446.31
685.05,1437.26
685.45,1427.93
685.86,1418.56
686.27,1409.40
686.68,1400.68
687.09,1392.55
687.49,1385.13
687.90,1378.42
688.31,1372.38
688.72,1366.89
689.12,1361.78
689.53,1356.90
689.94,1352.08
690.35,1347.18
690.75,1342.10
691.16,1336.78
691.57,1331.22
691.97,1325.44
692.38,1319.47
692.79,1313.37
693.20,1307.21
693.60,1301.02
694.01,1294.85
694.42,1288.74
694.82,1282.72
695.23,1276.80
695.64,1270.98
696.04,1265.27
696.45,1259.66
696.86,1254.15
697.26,1248.72
697.67,1243.38
698.07,1238.13
698.48,1232.99
698.89,1227.99
699.29,1223.15
699.70,1218.49
700.11,1214.01
700.51,1209.70
700.92,1205.53
701.32,1201.45
701.73,1197.42
702.14,1193.39
702.54,1189.31
702.95,1185.18
703.35,1180.96
703.76,1176.67
704.16,1172.30
704.57,1167.84
704.97,1163.27
705.38,1158.56
705.79,1153.70
706.19,1148.64
706.60,1143.39
707.00,1137.93
707.41,1132.31
707.81,1126.55
708.22,1120.72
708.62,1114.88
709.03,1109.12
709.43,1103.51
709.84,1098.10
710.24,1092.96
710.65,1088.14
711.05,1083.67
711.46,1079.58
711.86,1075.86
712.27,1072.49
712.67,1069.45
713.07,1066.67
713.48,1064.07
713.88,1061.58
714.29,1059.12
714.69,1056.62
715.10,1054.02
715.50,1051.29
715.90,1048.41
716.31,1045.38
716.71,1042.23
717.12,1038.95
717.52,1035.59
717.92,1032.16
718.33,1028.66
718.73,1025.12
719.14,1021.52
719.54,1017.89
719.94,1014.22
720.35,1010.51
720.75,1006.79
721.15,1003.05
721.56,999.29
721.96,995.53
722.36,991.74
722.77,987.90
723.17,984.00
723.57,979.98
723.98,975.83
724.38,971.53
724.78,967.07
725.19,962.48
725.59,957.80
725.99,953.11
726.39,948.51
726.80,944.09
727.20,939.97
727.60,936.25
728.00,932.99
728.41,930.25
728.81,928.03
729.21,926.33
729.61,925.09
730.02,924.27
730.42,923.79
730.82,923.56
731.22,923.52
731.63,923.57
732.03,923.64
732.43,923.64
732.83,923.51
733.23,923.18
733.64,922.62
734.04,921.80
734.44,920.71
734.84,919.36
735.24,917.78
735.64,915.98
736.05,913.97
736.45,911.75
736.85,909.30
737.25,906.60
737.65,903.61
738.05,900.30
738.45,896.69
738.86,892.78
739.26,888.64
739.66,884.37
740.06,880.07
740.46,875.86
740.86,871.85
741.26,868.14
