wavelength,counts
188.65,291.53
189.10,291.53
189.56,291.53
190.01,291.53
190.47,291.53
190.92,323.72
191.37,337.03
191.83,352.05
192.28,368.50
192.74,386.00
193.19,404.14
193.64,422.44
194.10,441.24
194.55,460.38
195.01,479.71
195.46,499.11
195.91,518.49
196.37,537.79
196.82,556.93
197.27,575.84
197.73,594.45
198.18,612.67
198.63,630.36
199.09,647.36
199.54,663.50
199.99,678.58
200.45,692.43
200.90,704.90
201.35,715.87
201.81,725.33
202.26,733.28
202.71,739.84
203.17,745.15
203.62,749.42
204.07,752.86
204.53,755.70
204.98,758.12
205.43,760.27
205.89,762.27
206.34,764.15
206.79,765.92
207.25,767.56
207.70,769.01
208.15,770.22
208.60,771.14
209.06,771.72
209.51,771.97
209.96,771.87
210.41,771.44
210.87,770.70
211.32,769.70
211.77,768.44
212.23,766.99
212.68,765.38
213.13,763.67
213.58,761.95
214.04,760.28
214.49,758.77
214.94,757.50
215.39,756.54
215.84,755.95
216.30,755.73
216.75,755.85
217.20,756.23
217.65,756.76
218.11,757.29
218.56,757.69
219.01,757.83
219.46,757.61
219.91,756.96
220.37,755.88
220.82,754.40
221.27,752.59
221.72,750.55
222.17,748.41
222.63,746.29
223.08,744.29
223.53,742.52
223.98,741.02
224.43,739.83
224.88,738.94
225.34,738.33
225.79,737.96
226.24,737.78
226.69,737.75
227.14,737.85
227.59,738.08
228.04,738.44
228.50,738.97
228.95,739.71
229.40,740.69
229.85,741.93
230.30,743.44
230.75,745.22
231.20,747.22
231.66,749.38
232.11,751.65
232.56,753.93
233.01,756.17
233.46,758.29
233.91,760.24
234.36,761.98
234.81,763.50
235.26,764.80
235.71,765.90
236.17,766.81
236.62,767.57
237.07,768.21
237.52,768.74
237.97,769.17
238.42,769.48
238.87,769.65
239.32,769.63
239.77,769.39
240.22,768.85
240.67,767.99
241.12,766.77
241.57,765.20
242.02,763.29
242.47,761.09
242.92,758.69
243.37,756.19
243.82,753.70
244.27,751.34
244.72,749.24
245.18,747.49
245.63,746.18
246.08,745.37
246.53,745.08
246.98,745.32
247.43,746.07
247.88,747.27
248.33,748.89
248.78,750.87
249.23,753.14
249.68,755.66
250.12,758.37
250.57,761.21
251.02,764.13
251.47,767.04
251.92,769.87
252.37,772.52
252.82,774.90
253.27,776.92
253.72,778.51
254.17,779.63
254.62,780.27
255.07,780.47
255.52,780.32
255.97,779.93
256.42,779.42
256.87,778.92
257.32,778.54
257.77,778.35
258.22,778.34
258.66,778.50
259.11,778.73
259.56,778.93
260.01,778.96
260.46,778.72
260.91,778.14
261.36,777.17
261.81,775.86
262.26,774.27
262.71,772.52
263.15,770.75
263.60,769.08
264.05,767.64
264.50,766.49
264.95,765.66
265.40,765.15
265.85,764.91
266.30,764.87
266.74,764.96
267.19,765.11
267.64,765.29
268.09,765.47
268.54,765.68
268.99,765.93
269.43,766.28
269.88,766.75
270.33,767.37
270.78,768.15
271.23,769.05
271.68,770.02
272.12,771.01
272.57,771.92
273.02,772.69
273.47,773.25
273.92,773.55
274.36,773.57
274.81,773.32
275.26,772.81
275.71,772.09
276.16,771.20
276.60,770.22
277.05,769.17
277.50,768.12
277.95,767.08
278.39,766.08
278.84,765.12
279.29,764.18
279.74,763.26
280.19,762.33
280.63,761.39
281.08,760.45
281.53,759.52
281.98,758.65
282.42,757.87
282.87,757.23
283.32,756.76
283.76,756.48
284.21,756.38
284.66,756.42
285.11,756.56
285.55,756.73
286.00,756.88
286.45,756.94
286.89,756.89
287.34,756.73
287.79,756.46
288.23,756.13
288.68,755.77
289.13,755.44
289.58,755.15
290.02,754.94
290.47,754.79
290.92,754.70
291.36,754.66
291.81,754.68
292.26,754.77
292.70,754.95
293.15,755.29
293.60,755.83
294.04,756.63
294.49,757.70
294.93,759.05
295.38,760.65
295.83,762.42
296.27,764.27
296.72,766.10
297.17,767.79
297.61,769.26
298.06,770.45
298.50,771.34
298.95,771.92
299.40,772.23
299.84,772.31
300.29,772.22
300.73,772.00
301.18,771.68
301.63,771.30
302.07,770.85
302.52,770.37
302.96,769.87
303.41,769.38
303.85,768.94
304.30,768.61
304.75,768.43
305.19,768.45
305.64,768.68
306.08,769.12
306.53,769.74
306.97,770.47
307.42,771.24
307.86,771.94
308.31,772.48
308.75,772.79
309.20,772.80
309.65,772.51
310.09,771.93
310.54,771.10
310.98,770.13
311.43,769.12
311.87,768.20
312.32,767.50
312.76,767.14
313.21,767.22
313.65,767.80
314.10,768.88
314.54,770.43
314.99,772.37
315.43,774.60
315.87,776.96
316.32,779.34
316.76,781.59
317.21,783.63
317.65,785.39
318.10,786.84
318.54,787.98
318.99,788.84
319.43,789.42
319.88,789.74
320.32,789.80
320.76,789.56
321.21,789.00
321.65,788.08
322.10,786.77
322.54,785.09
322.99,783.06
323.43,780.76
323.87,778.31
324.32,775.84
324.76,773.50
325.21,771.42
325.65,769.74
326.09,768.54
326.54,767.87
326.98,767.74
327.42,768.12
327.87,768.96
328.31,770.17
328.76,771.66
329.20,773.35
329.64,775.15
330.09,776.99
330.53,778.81
330.97,780.56
331.42,782.20
331.86,783.68
332.30,784.96
332.75,785.98
333.19,786.70
333.63,787.07
334.08,787.07
334.52,786.67
334.96,785.90
335.41,784.78
335.85,783.38
336.29,781.79
336.74,780.14
337.18,778.55
337.62,777.14
338.06,776.04
338.51,775.33
338.95,775.09
339.39,775.34
339.84,776.05
340.28,777.17
340.72,778.59
341.16,780.21
341.61,781.87
342.05,783.46
342.49,784.87
342.93,786.04
343.38,786.96
343.82,787.65
344.26,788.17
344.70,788.61
345.15,789.03
345.59,789.50
346.03,790.03
346.47,790.59
346.92,791.13
347.36,791.54
347.80,791.72
348.24,791.58
348.68,791.08
349.13,790.20
349.57,788.98
350.01,787.53
350.45,785.98
350.89,784.48
351.34,783.19
351.78,782.24
352.22,781.74
352.66,781.73
353.10,782.22
353.54,783.15
353.99,784.43
354.43,785.92
354.87,787.50
355.31,788.99
355.75,790.28
356.19,791.25
356.63,791.81
357.08,791.92
357.52,791.56
357.96,790.76
358.40,789.59
358.84,788.12
359.28,786.48
359.72,784.76
360.16,783.09
360.60,781.58
361.05,780.31
361.49,779.33
361.93,778.64
362.37,778.21
362.81,778.00
363.25,777.90
363.69,777.82
364.13,777.68
364.57,777.42
365.01,777.02
365.45,776.50
365.89,775.92
366.33,775.38
366.78,775.00
367.22,774.90
367.66,775.15
368.10,775.84
368.54,776.97
368.98,778.52
369.42,780.39
369.86,782.47
370.30,784.59
370.74,786.61
371.18,788.37
371.62,789.72
372.06,790.58
372.50,790.87
372.94,790.57
373.38,789.72
373.82,788.36
374.26,786.58
374.70,784.49
375.14,782.19
375.58,779.79
376.02,777.40
376.46,775.11
376.90,773.03
377.34,771.24
377.78,769.80
378.21,768.79
378.65,768.27
379.09,768.26
379.53,768.80
379.97,769.87
380.41,771.47
380.85,773.51
381.29,775.90
381.73,778.52
382.17,781.20
382.61,783.78
383.05,786.07
383.49,787.93
383.93,789.20
384.36,789.81
384.80,789.73
385.24,788.97
385.68,787.63
386.12,785.82
386.56,783.70
387.00,781.43
387.44,779.16
387.87,777.03
388.31,775.12
388.75,773.51
389.19,772.22
389.63,771.25
390.07,770.59
390.51,770.23
390.94,770.15
391.38,770.34
391.82,770.82
392.26,771.58
392.70,772.64
393.14,774.00
393.57,775.62
394.01,777.48
394.45,779.50
394.89,781.63
395.33,783.77
395.76,785.84
396.20,787.76
396.64,789.48
397.08,790.94
397.52,792.11
397.95,792.98
398.39,793.54
398.83,793.80
399.27,793.78
399.70,793.50
400.14,793.01
400.58,792.32
401.02,791.51
401.45,790.60
401.89,789.67
402.33,788.77
402.77,787.94
403.20,787.25
403.64,786.74
404.08,786.45
404.52,786.43
404.95,786.72
405.39,787.35
405.83,788.34
406.26,789.68
406.70,791.35
407.14,793.28
407.58,795.39
408.01,797.57
408.45,799.69
408.89,801.63
409.32,803.29
409.76,804.62
410.20,805.62
410.63,806.31
411.07,806.81
411.51,807.24
411.94,807.75
412.38,808.50
412.82,809.60
413.25,811.15
413.69,813.20
414.12,815.75
414.56,818.74
415.00,822.11
415.43,825.76
415.87,829.58
416.31,833.48
416.74,837.39
417.18,841.25
417.61,845.05
418.05,848.81
418.49,852.57
418.92,856.42
419.36,860.45
419.79,864.76
420.23,869.48
420.67,874.71
421.10,880.53
421.54,887.03
421.97,894.26
422.41,902.23
422.84,910.96
423.28,920.42
423.71,930.58
424.15,941.39
424.59,952.79
425.02,964.74
425.46,977.17
425.89,990.07
426.33,1003.40
426.76,1017.17
427.20,1031.40
427.63,1046.16
428.07,1061.52
428.50,1077.62
428.94,1094.59
429.37,1112.61
429.81,1131.89
430.24,1152.62
430.68,1175.02
431.11,1199.29
431.55,1225.64
431.98,1254.21
432.42,1285.15
432.85,1318.55
433.28,1354.49
433.72,1393.01
434.15,1434.13
434.59,1477.86
435.02,1524.20
435.46,1573.18
435.89,1624.79
436.33,1679.05
436.76,1736.00
437.19,1795.65
437.63,1858.07
438.06,1923.29
438.50,1991.41
438.93,2062.52
439.37,2136.78
439.80,2214.37
440.23,2295.56
440.67,2380.64
441.10,2469.97
441.53,2563.97
441.97,2663.10
442.40,2767.84
442.84,2878.73
443.27,2996.33
443.70,3121.26
444.14,3254.17
444.57,3395.79
445.00,3546.91
445.44,3708.39
445.87,3881.16
446.30,4066.17
446.74,4264.40
447.17,4476.77
447.60,4704.10
448.04,4947.06
448.47,5206.08
448.90,5481.32
449.34,5772.61
449.77,6079.38
450.20,6400.69
450.64,6735.17
451.07,7081.02
451.50,7436.01
451.93,7797.52
452.37,8162.49
452.80,8527.54
453.23,8888.92
453.67,9242.64
454.10,9584.52
454.53,9910.30
454.96,10215.74
455.40,10496.76
455.83,10749.58
456.26,10970.86
456.69,11157.78
457.13,11308.20
457.56,11420.67
457.99,11494.52
458.42,11529.86
458.86,11527.56
459.29,11489.23
459.72,11417.18
460.15,11314.37
460.58,11184.32
461.02,11031.06
461.45,10859.02
461.88,10672.90
462.31,10477.56
462.74,10277.85
463.18,10078.47
463.61,9883.78
464.04,9697.69
464.47,9523.52
464.90,9363.94
465.33,9220.90
465.77,9095.63
466.20,8988.72
466.63,8900.09
467.06,8829.18
467.49,8774.95
467.92,8736.00
468.35,8710.69
468.78,8697.15
469.22,8693.42
469.65,8697.46
470.08,8707.25
470.51,8720.80
470.94,8736.25
471.37,8751.85
471.80,8766.05
472.23,8777.52
472.66,8785.16
473.10,8788.11
473.53,8785.80
473.96,8777.90
474.39,8764.37
474.82,8745.40
475.25,8721.44
475.68,8693.17
476.11,8661.48
476.54,8627.39
476.97,8592.08
477.40,8556.80
477.83,8522.82
478.26,8491.40
478.69,8463.72
479.12,8440.88
479.55,8423.81
479.98,8413.30
480.41,8409.96
480.84,8414.22
481.27,8426.34
481.70,8446.41
482.13,8474.35
482.56,8509.94
482.99,8552.85
483.42,8602.61
483.85,8658.70
484.28,8720.51
484.71,8787.39
485.14,8858.67
485.57,8933.69
486.00,9011.77
486.43,9092.25
486.86,9174.48
487.29,9257.81
487.72,9341.58
488.15,9425.16
488.58,9507.89
489.01,9589.19
489.44,9668.49
489.87,9745.34
490.30,9819.39
490.72,9890.46
491.15,9958.52
491.58,10023.70
492.01,10086.30
492.44,10146.70
492.87,10205.39
493.30,10262.86
493.73,10319.55
494.16,10375.86
494.59,10432.06
495.01,10488.34
495.44,10544.73
495.87,10601.21
496.30,10657.65
496.73,10713.91
497.16,10769.80
497.59,10825.17
498.01,10879.87
498.44,10933.81
498.87,10986.94
499.30,11039.25
499.73,11090.76
500.16,11141.54
500.58,11191.67
501.01,11241.25
501.44,11290.41
501.87,11339.25
502.30,11387.89
502.72,11436.44
503.15,11484.98
503.58,11533.55
504.01,11582.14
504.44,11630.67
504.86,11678.98
505.29,11726.85
505.72,11773.98
506.15,11820.07
506.57,11864.78
507.00,11907.82
507.43,11948.97
507.86,11988.09
508.28,12025.16
508.71,12060.23
509.14,12093.38
509.57,12124.78
509.99,12154.54
510.42,12182.79
510.85,12209.59
511.27,12235.02
511.70,12259.15
512.13,12282.07
512.56,12303.94
512.98,12324.99
513.41,12345.50
513.84,12365.78
514.26,12386.11
514.69,12406.73
515.12,12427.78
515.54,12449.28
515.97,12471.14
516.40,12493.18
516.82,12515.15
517.25,12536.79
517.68,12557.90
518.10,12578.30
518.53,12597.93
518.95,12616.80
519.38,12635.01
519.81,12652.68
520.23,12669.98
520.66,12687.07
521.09,12704.11
521.51,12721.20
521.94,12738.40
522.36,12755.74
522.79,12773.20
523.22,12790.74
523.64,12808.32
524.07,12825.90
524.49,12843.48
524.92,12861.09
525.34,12878.83
525.77,12896.86
526.20,12915.35
526.62,12934.50
527.05,12954.49
527.47,12975.39
527.90,12997.20
528.32,13019.77
528.75,13042.82
529.17,13065.94
529.60,13088.65
530.02,13110.47
530.45,13130.94
530.87,13149.73
531.30,13166.65
531.72,13181.69
532.15,13195.00
532.57,13206.85
533.00,13217.63
533.42,13227.73
533.85,13237.55
534.27,13247.45
534.70,13257.71
535.12,13268.57
535.55,13280.20
535.97,13292.74
536.40,13306.29
536.82,13320.95
537.25,13336.75
537.67,13353.69
538.09,13371.71
538.52,13390.65
538.94,13410.26
539.37,13430.22
539.79,13450.17
540.22,13469.70
540.64,13488.44
541.06,13506.08
541.49,13522.40
541.91,13537.32
542.34,13550.86
542.76,13563.13
543.18,13574.37
543.61,13584.83
544.03,13594.79
544.46,13604.52
544.88,13614.22
545.30,13624.07
545.73,13634.17
546.15,13644.55
546.57,13655.20
547.00,13666.08
547.42,13677.12
547.84,13688.23
548.27,13699.34
548.69,13710.40
549.11,13721.35
549.54,13732.13
549.96,13742.71
550.38,13753.01
550.81,13762.94
551.23,13772.35
551.65,13781.06
552.07,13788.86
552.50,13795.48
552.92,13800.68
553.34,13804.21
553.77,13805.86
554.19,13805.47
554.61,13802.96
555.03,13798.30
555.46,13791.53
555.88,13782.78
556.30,13772.26
556.72,13760.23
557.15,13747.06
557.57,13733.15
557.99,13718.97
558.41,13704.97
558.84,13691.60
559.26,13679.21
559.68,13668.05
560.10,13658.24
560.52,13649.75
560.95,13642.46
561.37,13636.14
561.79,13630.60
562.21,13625.65
562.63,13621.25
563.06,13617.48
563.48,13614.58
563.90,13612.91
564.32,13612.92
564.74,13615.09
565.16,13619.84
565.58,13627.51
566.01,13638.24
566.43,13652.00
566.85,13668.51
567.27,13687.31
567.69,13707.76
568.11,13729.09
568.53,13750.43
568.96,13770.92
569.38,13789.71
569.80,13806.06
570.22,13819.32
570.64,13829.00
571.06,13834.75
571.48,13836.34
571.90,13833.70
572.32,13826.82
572.74,13815.82
573.16,13800.87
573.58,13782.22
574.01,13760.16
574.43,13735.03
574.85,13707.21
575.27,13677.09
575.69,13645.07
576.11,13611.50
576.53,13576.71
576.95,13540.98
577.37,13504.50
577.79,13467.41
578.21,13429.83
578.63,13391.83
579.05,13353.46
579.47,13314.82
579.89,13276.03
580.31,13237.24
580.73,13198.67
581.15,13160.57
581.57,13123.22
581.99,13086.95
582.41,13052.09
582.83,13018.97
583.25,12987.92
583.67,12959.25
584.09,12933.23
584.51,12910.12
584.93,12890.14
585.34,12873.44
585.76,12860.17
586.18,12850.39
586.60,12844.14
587.02,12841.44
587.44,12842.24
587.86,12846.50
588.28,12854.16
588.70,12865.15
589.12,12879.41
589.54,12896.86
589.95,12917.47
590.37,12941.17
590.79,12967.93
591.21,12997.73
591.63,13030.54
592.05,13066.35
592.47,13105.15
592.89,13146.92
593.30,13191.65
593.72,13239.26
594.14,13289.66
594.56,13342.67
594.98,13398.02
595.40,13455.34
595.81,13514.13
596.23,13573.78
596.65,13633.56
597.07,13692.60
597.49,13749.96
597.90,13804.66
598.32,13855.68
598.74,13902.04
599.16,13942.86
599.58,13977.41
599.99,14005.15
600.41,14025.76
600.83,14039.21
601.25,14045.68
601.66,14045.59
602.08,14039.54
602.50,14028.24
602.92,14012.47
603.33,13992.98
603.75,13970.48
604.17,13945.55
604.59,13918.65
605.00,13890.10
605.42,13860.11
605.84,13828.77
606.25,13796.12
606.67,13762.13
607.09,13726.78
607.51,13690.06
607.92,13651.95
608.34,13612.45
608.76,13571.58
609.17,13529.34
609.59,13485.74
610.01,13440.76
610.42,13394.40
610.84,13346.66
611.26,13297.57
611.67,13247.24
612.09,13195.85
612.51,13143.66
612.92,13091.03
613.34,13038.42
613.75,12986.29
614.17,12935.15
614.59,12885.44
615.00,12837.53
615.42,12791.66
615.83,12747.92
616.25,12706.27
616.67,12666.54
617.08,12628.49
617.50,12591.83
617.91,12556.29
618.33,12521.63
618.75,12487.70
619.16,12454.39
619.58,12421.66
619.99,12389.47
620.41,12357.76
620.82,12326.41
621.24,12295.21
621.65,12263.85
622.07,12231.95
622.48,12199.12
622.90,12164.98
623.31,12129.22
623.73,12091.69
624.14,12052.39
624.56,12011.49
624.97,11969.32
625.39,11926.34
625.80,11883.05
626.22,11839.97
626.63,11797.52
627.05,11756.00
627.46,11715.56
627.88,11676.19
628.29,11637.70
628.71,11599.80
629.12,11562.13
629.54,11524.31
629.95,11485.98
630.37,11446.87
630.78,11406.81
631.19,11365.70
631.61,11323.57
632.02,11280.48
632.44,11236.57
632.85,11191.96
633.26,11146.80
633.68,11101.20
634.09,11055.27
634.51,11009.07
634.92,10962.67
635.33,10916.10
635.75,10869.40
636.16,10822.55
636.57,10775.54
636.99,10728.32
637.40,10680.80
637.82,10632.86
638.23,10584.39
638.64,10535.24
639.06,10485.28
639.47,10434.39
639.88,10382.48
640.30,10329.47
640.71,10275.36
641.12,10220.14
641.53,10163.91
641.95,10106.77
642.36,10048.91
642.77,9990.55
643.19,9931.97
643.60,9873.45
644.01,9815.32
644.42,9757.86
644.84,9701.32
645.25,9645.88
645.66,9591.63
646.08,9538.59
646.49,9486.63
646.90,9435.56
647.31,9385.09
647.73,9334.85
648.14,9284.47
648.55,9233.53
648.96,9181.66
649.37,9128.55
649.79,9073.99
650.20,9017.88
650.61,8960.24
651.02,8901.22
651.43,8841.08
651.85,8780.15
652.26,8718.77
652.67,8657.32
653.08,8596.09
653.49,8535.34
653.90,8475.21
654.32,8415.78
654.73,8357.04
655.14,8298.93
655.55,8241.34
655.96,8184.15
656.37,8127.23
656.78,8070.45
657.20,8013.69
657.61,7956.83
658.02,7899.79
658.43,7842.47
658.84,7784.82
659.25,7726.80
659.66,7668.40
660.07,7609.66
660.48,7550.66
660.90,7491.49
661.31,7432.30
661.72,7373.23
662.13,7314.42
662.54,7256.00
662.95,7198.02
663.36,7140.52
663.77,7083.47
664.18,7026.81
664.59,6970.45
665.00,6914.29
665.41,6858.22
665.82,6802.18
666.23,6746.12
666.64,6690.00
667.05,6633.82
667.46,6577.56
667.87,6521.25
668.28,6464.88
668.69,6408.47
669.10,6352.05
669.51,6295.66
669.92,6239.37
670.33,6183.28
670.74,6127.51
671.15,6072.19
671.56,6017.43
671.97,5963.31
672.38,5909.87
672.79,5857.07
673.20,5804.81
673.61,5752.93
674.02,5701.21
674.42,5649.46
674.83,5597.47
675.24,5545.09
675.65,5492.26
676.06,5439.03
676.47,5385.54
676.88,5332.04
677.29,5278.86
677.70,5226.35
678.11,5174.87
678.51,5124.70
678.92,5076.03
679.33,5028.89
679.74,4983.17
680.15,4938.58
680.56,4894.74
680.97,4851.21
681.37,4807.54
681.78,4763.34
682.19,4718.38
682.60,4672.55
683.01,4625.93
683.42,4578.71
683.82,4531.22
684.23,4483.79
684.64,4436.76
685.05,4390.42
685.45,4344.94
685.86,4300.42
686.27,4256.85
686.68,4214.16
687.09,4172.25
687.49,4131.02
687.90,4090.36
688.31,4050.22
688.72,4010.55
689.12,3971.33
689.53,3932.55
689.94,3894.18
690.35,3856.20
690.75,3818.56
691.16,3781.23
691.57,3744.16
691.97,3707.34
692.38,3670.75
692.79,3634.40
693.20,3598.30
693.60,3562.48
694.01,3526.96
694.42,3491.73
694.82,3456.80
695.23,3422.14
695.64,3387.73
696.04,3353.56
696.45,3319.64
696.86,3286.01
697.26,3252.73
697.67,3219.88
698.07,3187.54
698.48,3155.79
698.89,3124.66
699.29,3094.15
699.70,3064.21
700.11,3034.72
700.51,3005.54
700.92,2976.52
701.32,2947.52
701.73,2918.44
702.14,2889.26
702.54,2859.98
702.95,2830.72
703.35,2801.62
703.76,2772.84
704.16,2744.54
704.57,2716.87
704.97,2689.91
705.38,2663.67
705.79,2638.12
706.19,2613.15
706.60,2588.64
707.00,2564.42
707.41,2540.38
707.81,2516.39
708.22,2492.41
708.62,2468.44
709.03,2444.52
709.43,2420.73
709.84,2397.17
710.24,2373.96
710.65,2351.18
711.05,2328.87
711.46,2307.07
711.86,2285.75
712.27,2264.86
712.67,2244.32
713.07,2224.05
713.48,2203.97
713.88,2184.02
714.29,2164.14
714.69,2144.31
715.10,2124.49
715.50,2104.71
715.90,2084.96
716.31,2065.29
716.71,2045.71
717.12,2026.27
717.52,2007.02
717.92,1987.99
718.33,1969.24
718.73,1950.81
719.14,1932.73
719.54,1915.03
719.94,1897.74
720.35,1880.86
720.75,1864.38
721.15,1848.31
721.56,1832.61
721.96,1817.26
722.36,1802.22
722.77,1787.45
723.17,1772.89
723.57,1758.49
723.98,1744.22
724.38,1730.04
724.78,1715.96
725.19,1702.02
725.59,1688.29
725.99,1674.88
726.39,1661.91
726.80,1649.52
727.20,1637.79
727.60,1626.82
728.00,1616.60
728.41,1607.07
728.81,1598.13
729.21,1589.58
729.61,1581.22
