wavelength,counts
188.65,97.29
189.10,97.29
189.56,97.29
190.01,97.29
190.47,97.29
190.92,116.93
191.37,125.50
191.83,135.50
192.28,146.88
192.74,159.53
193.19,173.27
193.64,187.91
194.10,203.69
194.55,220.51
195.01,238.31
195.46,256.97
195.91,276.40
196.37,296.48
196.82,317.08
197.27,338.03
197.73,359.15
198.18,380.24
198.63,401.06
199.09,421.36
199.54,440.87
199.99,459.34
200.45,476.52
200.90,492.22
201.35,506.31
201.81,518.72
202.26,529.47
202.71,538.62
203.17,546.30
203.62,552.70
204.07,557.99
204.53,562.35
204.98,565.95
205.43,568.92
205.89,571.33
206.34,573.25
206.79,574.68
207.25,575.66
207.70,576.18
208.15,576.27
208.60,575.97
209.06,575.33
209.51,574.41
209.96,573.28
210.41,571.99
210.87,570.57
211.32,569.05
211.77,567.41
212.23,565.67
212.68,563.82
213.13,561.89
213.58,559.91
214.04,557.95
214.49,556.11
214.94,554.46
215.39,553.10
215.84,552.07
216.30,551.39
216.75,551.05
217.20,551.00
217.65,551.14
218.11,551.41
218.56,551.71
219.01,551.98
219.46,552.20
219.91,552.34
220.37,552.43
220.82,552.48
221.27,552.54
221.72,552.61
222.17,552.71
222.63,552.83
223.08,552.97
223.53,553.10
223.98,553.21
224.43,553.32
224.88,553.45
225.34,553.63
225.79,553.92
226.24,554.36
226.69,554.99
227.14,555.81
227.59,556.79
228.04,557.85
228.50,558.88
228.95,559.74
229.40,560.30
229.85,560.45
230.30,560.12
230.75,559.30
231.20,558.06
231.66,556.52
232.11,554.87
232.56,553.32
233.01,552.08
233.46,551.33
233.91,551.19
234.36,551.71
234.81,552.89
235.26,554.63
235.71,556.80
236.17,559.21
236.62,561.67
237.07,564.01
237.52,566.05
237.97,567.65
238.42,568.71
238.87,569.13
239.32,568.88
239.77,567.94
240.22,566.31
240.67,564.04
241.12,561.24
241.57,558.01
242.02,554.54
242.47,551.01
242.92,547.64
243.37,544.64
243.82,542.20
244.27,540.49
244.72,539.58
245.18,539.53
245.63,540.31
246.08,541.83
246.53,543.95
246.98,546.53
247.43,549.36
247.88,552.29
248.33,555.13
248.78,557.72
249.23,559.95
249.68,561.71
250.12,562.92
250.57,563.55
251.02,563.59
251.47,563.08
251.92,562.06
252.37,560.65
252.82,558.97
253.27,557.15
253.72,555.34
254.17,553.68
254.62,552.28
255.07,551.23
255.52,550.57
255.97,550.31
256.42,550.39
256.87,550.74
257.32,551.26
257.77,551.84
258.22,552.37
258.66,552.77
259.11,552.97
259.56,552.93
260.01,552.65
260.46,552.15
260.91,551.46
261.36,550.66
261.81,549.79
262.26,548.95
262.71,548.18
263.15,547.55
263.60,547.12
264.05,546.91
264.50,546.97
264.95,547.29
265.40,547.88
265.85,548.72
266.30,549.76
266.74,550.95
267.19,552.23
267.64,553.51
268.09,554.71
268.54,555.77
268.99,556.62
269.43,557.22
269.88,557.56
270.33,557.65
270.78,557.52
271.23,557.23
271.68,556.83
272.12,556.41
272.57,556.04
273.02,555.81
273.47,555.78
273.92,556.02
274.36,556.57
274.81,557.46
275.26,558.69
275.71,560.24
276.16,562.07
276.60,564.12
277.05,566.31
277.50,568.58
277.95,570.82
278.39,572.97
278.84,574.97
279.29,576.75
279.74,578.27
280.19,579.51
280.63,580.45
281.08,581.09
281.53,581.42
281.98,581.45
282.42,581.21
282.87,580.73
283.32,580.02
283.76,579.14
284.21,578.13
284.66,577.01
285.11,575.84
285.55,574.63
286.00,573.43
286.45,572.25
286.89,571.09
287.34,569.99
287.79,568.93
288.23,567.95
288.68,567.07
289.13,566.30
289.58,565.69
290.02,565.27
290.47,565.10
290.92,565.19
291.36,565.59
291.81,566.31
292.26,567.35
292.70,568.68
293.15,570.28
293.60,572.09
294.04,574.04
294.49,576.05
294.93,578.03
295.38,579.91
295.83,581.58
296.27,582.96
296.72,583.99
297.17,584.60
297.61,584.75
298.06,584.40
298.50,583.58
298.95,582.31
299.40,580.68
299.84,578.77
300.29,576.71
300.73,574.63
301.18,572.66
301.63,570.93
302.07,569.52
302.52,568.49
302.96,567.88
303.41,567.66
303.85,567.79
304.30,568.19
304.75,568.77
305.19,569.43
305.64,570.07
306.08,570.59
306.53,570.92
306.97,571.00
307.42,570.81
307.86,570.34
308.31,569.61
308.75,568.70
309.20,567.66
309.65,566.60
310.09,565.62
310.54,564.83
310.98,564.32
311.43,564.17
311.87,564.43
312.32,565.12
312.76,566.21
313.21,567.65
313.65,569.32
314.10,571.10
314.54,572.83
314.99,574.38
315.43,575.59
315.87,576.39
316.32,576.72
316.76,576.58
317.21,576.06
317.65,575.24
318.10,574.30
318.54,573.36
318.99,572.59
319.43,572.10
319.88,571.95
320.32,572.16
320.76,572.70
321.21,573.50
321.65,574.47
322.10,575.50
322.54,576.51
322.99,577.40
323.43,578.14
323.87,578.70
324.32,579.10
324.76,579.38
325.21,579.57
325.65,579.74
326.09,579.92
326.54,580.14
326.98,580.41
327.42,580.72
327.87,581.01
328.31,581.24
328.76,581.35
329.20,581.31
329.64,581.08
330.09,580.68
330.53,580.14
330.97,579.53
331.42,578.95
331.86,578.48
332.30,578.21
332.75,578.20
333.19,578.47
333.63,578.99
334.08,579.72
334.52,580.58
334.96,581.47
335.41,582.32
335.85,583.06
336.29,583.66
336.74,584.10
337.18,584.40
337.62,584.60
338.06,584.74
338.51,584.83
338.95,584.91
339.39,584.98
339.84,585.01
340.28,585.00
340.72,584.89
341.16,584.67
341.61,584.29
342.05,583.75
342.49,583.04
342.93,582.20
343.38,581.25
343.82,580.25
344.26,579.28
344.70,578.42
345.15,577.73
345.59,577.31
346.03,577.19
346.47,577.42
346.92,577.99
347.36,578.90
347.80,580.10
348.24,581.53
348.68,583.09
349.13,584.71
349.57,586.29
350.01,587.74
350.45,589.00
350.89,590.02
351.34,590.78
351.78,591.28
352.22,591.57
352.66,591.68
353.10,591.70
353.54,591.68
353.99,591.68
354.43,591.75
354.87,591.89
355.31,592.10
355.75,592.33
356.19,592.56
356.63,592.73
357.08,592.80
357.52,592.75
357.96,592.59
358.40,592.34
358.84,592.04
359.28,591.72
359.72,591.45
360.16,591.25
360.60,591.14
361.05,591.15
361.49,591.25
361.93,591.43
362.37,591.65
362.81,591.89
363.25,592.12
363.69,592.30
364.13,592.39
364.57,592.39
365.01,592.25
365.45,591.98
365.89,591.56
366.33,591.01
366.78,590.36
367.22,589.65
367.66,588.96
368.10,588.36
368.54,587.97
368.98,587.89
369.42,588.19
369.86,588.95
370.30,590.21
370.74,591.97
371.18,594.19
371.62,596.79
372.06,599.68
372.50,602.73
372.94,605.84
373.38,608.89
373.82,611.81
374.26,614.55
374.70,617.09
375.14,619.45
375.58,621.67
376.02,623.80
376.46,625.88
376.90,627.94
377.34,629.99
377.78,632.01
378.21,633.96
378.65,635.75
379.09,637.31
379.53,638.53
379.97,639.34
380.41,639.67
380.85,639.53
381.29,638.93
381.73,637.94
382.17,636.70
382.61,635.35
383.05,634.04
383.49,632.93
383.93,632.15
384.36,631.78
384.80,631.86
385.24,632.39
385.68,633.31
386.12,634.57
386.56,636.08
387.00,637.77
387.44,639.60
387.87,641.51
388.31,643.51
388.75,645.58
389.19,647.73
389.63,649.98
390.07,652.32
390.51,654.75
390.94,657.27
391.38,659.87
391.82,662.53
392.26,665.25
392.70,668.00
393.14,670.76
393.57,673.49
394.01,676.17
394.45,678.74
394.89,681.18
395.33,683.43
395.76,685.49
396.20,687.35
396.64,689.04
397.08,690.60
397.52,692.11
397.95,693.66
398.39,695.35
398.83,697.27
399.27,699.52
399.70,702.16
400.14,705.26
400.58,708.82
401.02,712.84
401.45,717.29
401.89,722.12
402.33,727.28
402.77,732.72
403.20,738.41
403.64,744.34
404.08,750.54
404.52,757.06
404.95,763.97
405.39,771.36
405.83,779.31
406.26,787.85
406.70,797.00
407.14,806.70
407.58,816.83
408.01,827.20
408.45,837.59
408.89,847.72
409.32,857.33
409.76,866.17
410.20,874.03
410.63,880.77
411.07,886.37
411.51,890.85
411.94,894.36
412.38,897.13
412.82,899.41
413.25,901.50
413.69,903.70
414.12,906.29
414.56,909.47
415.00,913.43
415.43,918.26
415.87,924.01
416.31,930.70
416.74,938.31
417.18,946.78
417.61,956.08
418.05,966.16
418.49,976.94
418.92,988.38
419.36,1000.38
419.79,1012.84
420.23,1025.65
420.67,1038.66
421.10,1051.74
421.54,1064.72
421.97,1077.48
422.41,1089.90
422.84,1101.91
423.28,1113.46
423.71,1124.57
424.15,1135.27
424.59,1145.62
425.02,1155.71
425.46,1165.63
425.89,1175.46
426.33,1185.27
426.76,1195.10
427.20,1204.98
427.63,1214.90
428.07,1224.85
428.50,1234.83
428.94,1244.80
429.37,1254.77
429.81,1264.74
430.24,1274.72
430.68,1284.72
431.11,1294.75
431.55,1304.81
431.98,1314.91
432.42,1325.00
432.85,1335.05
433.28,1345.01
433.72,1354.84
434.15,1364.50
434.59,1373.98
435.02,1383.29
435.46,1392.46
435.89,1401.57
436.33,1410.67
436.76,1419.87
437.19,1429.25
437.63,1438.88
438.06,1448.85
438.50,1459.21
438.93,1469.99
439.37,1481.23
439.80,1492.91
440.23,1505.02
440.67,1517.52
441.10,1530.32
441.53,1543.33
441.97,1556.44
442.40,1569.53
442.84,1582.48
443.27,1595.19
443.70,1607.58
444.14,1619.59
444.57,1631.20
445.00,1642.41
445.44,1653.23
445.87,1663.69
446.30,1673.80
446.74,1683.57
447.17,1693.01
447.60,1702.11
448.04,1710.86
448.47,1719.27
448.90,1727.36
449.34,1735.19
449.77,1742.84
450.20,1750.43
450.64,1758.09
451.07,1765.98
451.50,1774.28
451.93,1783.13
452.37,1792.67
452.80,1803.00
453.23,1814.19
453.67,1826.25
454.10,1839.19
454.53,1852.95
454.96,1867.48
455.40,1882.73
455.83,1898.64
456.26,1915.17
456.69,1932.29
457.13,1950.00
457.56,1968.32
457.99,1987.24
458.42,2006.79
458.86,2026.95
459.29,2047.69
459.72,2068.93
460.15,2090.56
460.58,2112.42
461.02,2134.31
461.45,2156.01
461.88,2177.27
462.31,2197.89
462.74,2217.71
463.18,2236.61
463.61,2254.58
464.04,2271.71
464.47,2288.14
464.90,2304.13
465.33,2319.95
465.77,2335.92
466.20,2352.36
466.63,2369.52
467.06,2387.64
467.49,2406.90
467.92,2427.39
468.35,2449.19
468.78,2472.33
469.22,2496.86
469.65,2522.81
470.08,2550.26
470.51,2579.29
470.94,2610.02
471.37,2642.57
471.80,2677.01
472.23,2713.40
472.66,2751.70
473.10,2791.83
473.53,2833.63
473.96,2876.87
474.39,2921.29
474.82,2966.64
475.25,3012.65
475.68,3059.08
476.11,3105.70
476.54,3152.33
476.97,3198.83
477.40,3245.07
477.83,3290.99
478.26,3336.56
478.69,3381.80
479.12,3426.78
479.55,3471.60
479.98,3516.36
480.41,3561.15
480.84,3606.06
481.27,3651.11
481.70,3696.32
482.13,3741.72
482.56,3787.34
482.99,3833.27
483.42,3879.64
483.85,3926.64
484.28,3974.45
484.71,4023.27
485.14,4073.22
485.57,4124.32
486.00,4176.48
486.43,4229.54
486.86,4283.23
487.29,4337.24
487.72,4391.23
488.15,4444.87
488.58,4497.82
489.01,4549.74
489.44,4600.31
489.87,4649.16
490.30,4695.97
490.72,4740.44
491.15,4782.40
491.58,4821.76
492.01,4858.64
492.44,4893.32
492.87,4926.19
493.30,4957.76
493.73,4988.53
494.16,5018.94
494.59,5049.31
495.01,5079.84
495.44,5110.59
495.87,5141.53
496.30,5172.62
496.73,5203.81
497.16,5235.11
497.59,5266.56
498.01,5298.23
498.44,5330.19
498.87,5362.45
499.30,5394.97
499.73,5427.65
500.16,5460.39
500.58,5493.09
501.01,5525.76
501.44,5558.48
501.87,5591.42
502.30,5624.82
502.72,5658.88
503.15,5693.74
503.58,5729.41
504.01,5765.75
504.44,5802.45
504.86,5839.17
505.29,5875.56
505.72,5911.34
506.15,5946.39
506.57,5980.73
507.00,6014.52
507.43,6047.94
507.86,6081.11
508.28,6114.00
508.71,6146.39
509.14,6177.84
509.57,6207.77
509.99,6235.55
510.42,6260.66
510.85,6282.80
511.27,6301.97
511.70,6318.51
512.13,6333.06
512.56,6346.42
512.98,6359.44
513.41,6372.84
513.84,6387.12
514.26,6402.48
514.69,6418.87
515.12,6435.98
515.54,6453.46
515.97,6470.96
516.40,6488.30
516.82,6505.48
517.25,6522.72
517.68,6540.38
518.10,6558.84
518.53,6578.45
518.95,6599.39
519.38,6621.64
519.81,6645.02
520.23,6669.22
520.66,6693.95
521.09,6718.98
521.51,6744.30
521.94,6770.07
522.36,6796.64
522.79,6824.43
523.22,6853.78
523.64,6884.85
524.07,6917.49
524.49,6951.20
524.92,6985.16
525.34,7018.34
525.77,7049.68
526.20,7078.24
526.62,7103.42
527.05,7125.02
527.47,7143.28
527.90,7158.81
528.32,7172.46
528.75,7185.11
529.17,7197.44
529.60,7209.84
530.02,7222.23
530.45,7234.14
530.87,7244.80
531.30,7253.29
531.72,7258.78
532.15,7260.75
532.57,7259.13
533.00,7254.37
533.42,7247.40
533.85,7239.50
534.27,7232.09
534.70,7226.49
535.12,7223.70
535.55,7224.27
535.97,7228.22
536.40,7235.10
536.82,7244.15
537.25,7254.47
537.67,7265.28
538.09,7276.06
538.52,7286.68
538.94,7297.44
539.37,7308.93
539.79,7321.91
540.22,7337.06
540.64,7354.85
541.06,7375.31
541.49,7398.05
541.91,7422.23
542.34,7446.76
542.76,7470.49
543.18,7492.41
543.61,7511.91
544.03,7528.89
544.46,7543.80
544.88,7557.57
545.30,7571.41
545.73,7586.59
546.15,7604.18
546.57,7624.77
547.00,7648.36
547.42,7674.29
547.84,7701.38
548.27,7728.06
548.69,7752.70
549.11,7773.89
549.54,7790.73
549.96,7802.98
550.38,7811.18
550.81,7816.51
551.23,7820.65
551.65,7825.45
552.07,7832.63
552.50,7843.41
552.92,7858.32
553.34,7877.02
553.77,7898.38
554.19,7920.57
554.61,7941.36
555.03,7958.48
555.46,7969.95
555.88,7974.43
556.30,7971.45
556.72,7961.47
557.15,7945.85
557.57,7926.66
557.99,7906.36
558.41,7887.45
558.84,7872.06
559.26,7861.69
559.68,7856.98
560.10,7857.65
560.52,7862.61
560.95,7870.19
561.37,7878.47
561.79,7885.63
562.21,7890.34
562.63,7891.99
563.06,7890.85
563.48,7888.03
563.90,7885.32
564.32,7884.89
564.74,7888.94
565.16,7899.29
565.58,7917.10
566.01,7942.62
566.43,7975.11
566.85,8012.96
567.27,8053.93
567.69,8095.42
568.11,8134.96
568.53,8170.49
568.96,8200.76
569.38,8225.46
569.80,8245.25
570.22,8261.65
570.64,8276.79
571.06,8292.96
571.48,8312.29
571.90,8336.33
572.32,8365.74
572.74,8400.14
573.16,8438.12
573.58,8477.39
574.01,8515.08
574.43,8548.17
574.85,8573.89
575.27,8590.15
575.69,8595.89
576.11,8591.21
576.53,8577.43
576.95,8556.93
577.37,8532.86
577.79,8508.72
578.21,8487.89
578.63,8473.22
579.05,8466.65
579.47,8468.92
579.89,8479.52
580.31,8496.77
580.73,8518.00
581.15,8539.96
581.57,8559.24
581.99,8572.68
582.41,8577.89
582.83,8573.45
583.25,8559.20
583.67,8536.21
584.09,8506.71
584.51,8473.76
584.93,8440.91
585.34,8411.76
585.76,8389.48
586.18,8376.47
586.60,8374.07
587.02,8382.38
587.44,8400.29
587.86,8425.67
588.28,8455.69
588.70,8487.14
589.12,8516.96
589.54,8542.62
589.95,8562.47
590.37,8575.99
590.79,8583.85
591.21,8587.85
591.63,8590.69
592.05,8595.62
592.47,8606.01
592.89,8624.91
593.30,8654.64
593.72,8696.50
594.14,8750.58
594.56,8815.72
594.98,8889.63
595.40,8969.21
595.81,9050.89
596.23,9131.07
596.65,9206.54
597.07,9274.89
597.49,9334.76
597.90,9385.98
598.32,9429.55
598.74,9467.48
599.16,9502.50
599.58,9537.64
599.99,9575.85
600.41,9619.52
600.83,9670.21
601.25,9728.34
601.66,9793.15
602.08,9862.75
602.50,9934.30
602.92,10004.31
603.33,10069.12
603.75,10125.20
604.17,10169.65
604.59,10200.49
605.00,10216.88
605.42,10219.26
605.84,10209.25
606.25,10189.51
606.67,10163.49
607.09,10135.02
607.51,10107.95
607.92,10085.77
608.34,10071.23
608.76,10066.12
609.17,10071.12
609.59,10085.75
610.01,10108.45
610.42,10136.82
610.84,10167.86
611.26,10198.35
611.67,10225.17
612.09,10245.63
612.51,10257.79
612.92,10260.60
613.34,10254.06
613.75,10239.14
614.17,10217.75
614.59,10192.48
615.00,10166.36
615.42,10142.53
615.83,10123.93
616.25,10113.01
616.67,10111.46
617.08,10120.03
617.50,10138.48
617.91,10165.57
618.33,10199.22
618.75,10236.70
619.16,10274.87
619.58,10310.58
619.99,10340.88
620.41,10363.40
620.82,10376.48
621.24,10379.40
621.65,10372.40
622.07,10356.65
622.48,10334.14
622.90,10307.46
623.31,10279.56
623.73,10253.50
624.14,10232.14
624.56,10217.88
624.97,10212.48
625.39,10216.92
625.80,10231.31
626.22,10254.96
626.63,10286.40
627.05,10323.59
627.46,10364.11
627.88,10405.36
628.29,10444.83
628.71,10480.30
629.12,10510.00
629.54,10532.83
629.95,10548.36
630.37,10556.89
630.78,10559.43
631.19,10557.53
631.61,10553.19
632.02,10548.64
632.44,10546.09
632.85,10547.60
633.26,10554.82
633.68,10568.85
634.09,10590.16
634.51,10618.56
634.92,10653.17
635.33,10692.57
635.75,10734.92
636.16,10778.09
636.57,10819.94
636.99,10858.45
637.40,10891.94
637.82,10919.22
638.23,10939.69
638.64,10953.42
639.06,10961.15
639.47,10964.22
639.88,10964.44
640.30,10963.99
640.71,10965.18
641.12,10970.28
641.53,10981.29
641.95,10999.77
642.36,11026.68
642.77,11062.33
643.19,11106.27
643.60,11157.37
644.01,11213.92
644.42,11273.72
644.84,11334.35
645.25,11393.29
645.66,11448.23
646.08,11497.21
646.49,11538.83
646.90,11572.33
647.31,11597.69
647.73,11615.59
648.14,11627.37
648.55,11634.89
648.96,11640.37
649.37,11646.18
649.79,11654.66
650.20,11667.90
650.61,11687.59
651.02,11714.92
651.43,11750.45
651.85,11794.14
652.26,11845.34
652.67,11902.86
653.08,11965.07
653.49,12030.02
653.90,12095.55
654.32,12159.47
654.73,12219.69
655.14,12274.32
655.55,12321.86
655.96,12361.28
656.37,12392.07
656.78,12414.34
657.20,12428.78
657.61,12436.59
658.02,12439.46
658.43,12439.35
658.84,12438.39
659.25,12438.70
659.66,12442.25
660.07,12450.68
660.48,12465.26
660.90,12486.76
661.31,12515.46
661.72,12551.12
662.13,12593.04
662.54,12640.08
662.95,12690.73
663.36,12743.21
663.77,12795.54
664.18,12845.67
664.59,12891.60
665.00,12931.51
665.41,12963.87
665.82,12987.59
666.23,13002.14
666.64,13007.56
667.05,13004.55
667.46,12994.40
667.87,12978.89
668.28,12960.24
668.69,12940.85
669.10,12923.16
669.51,12909.45
669.92,12901.70
670.33,12901.39
670.74,12909.46
671.15,12926.24
671.56,12951.44
671.97,12984.23
672.38,13023.24
672.79,13066.76
673.20,13112.76
673.61,13159.10
674.02,13203.61
674.42,13244.26
674.83,13279.28
675.24,13307.30
675.65,13327.41
676.06,13339.23
676.47,13342.99
676.88,13339.46
677.29,13329.89
677.70,13315.98
678.11,13299.66
678.51,13282.99
678.92,13268.00
679.33,13256.51
679.74,13250.02
680.15,13249.62
680.56,13255.92
680.97,13269.06
681.37,13288.73
681.78,13314.22
682.19,13344.52
682.60,13378.42
683.01,13414.57
683.42,13451.61
683.82,13488.17
684.23,13523.02
684.64,13555.01
685.05,13583.19
685.45,13606.81
685.86,13625.33
686.27,13638.47
686.68,13646.24
687.09,13648.95
687.49,13647.22
687.90,13641.99
688.31,13634.45
688.72,13626.02
689.12,13618.27
689.53,13612.79
689.94,13611.08
690.35,13614.49
690.75,13624.04
691.16,13640.38
691.57,13663.71
691.97,13693.75
692.38,13729.78
692.79,13770.66
693.20,13814.90
693.60,13860.78
694.01,13906.45
694.42,13950.04
694.82,13989.82
695.23,14024.26
695.64,14052.14
696.04,14072.64
696.45,14085.35
696.86,14090.34
697.26,14088.11
697.67,14079.61
698.07,14066.14
698.48,14049.33
698.89,14031.01
699.29,14013.18
699.70,13997.82
700.11,13986.87
700.51,13982.05
700.92,13984.83
701.32,13996.26
701.73,14016.97
702.14,14047.08
702.54,14086.18
702.95,14133.35
703.35,14187.20
703.76,14245.94
704.16,14307.47
704.57,14369.53
704.97,14429.81
705.38,14486.06
705.79,14536.26
706.19,14578.70
706.60,14612.09
707.00,14635.60
707.41,14648.92
707.81,14652.28
708.22,14646.39
708.62,14632.47
709.03,14612.12
709.43,14587.26
709.84,14560.00
710.24,14532.56
710.65,14507.08
711.05,14485.59
711.46,14469.82
711.86,14461.17
712.27,14460.59
712.67,14468.60
713.07,14485.22
713.48,14510.05
713.88,14542.23
714.29,14580.56
714.69,14623.53
715.10,14669.42
715.50,14716.41
715.90,14762.61
716.31,14806.21
716.71,14845.50
717.12,14878.96
717.52,14905.33
717.92,14923.64
718.33,14933.26
718.73,14933.89
719.14,14925.65
719.54,14908.98
719.94,14884.72
720.35,14854.01
720.75,14818.30
721.15,14779.26
721.56,14738.71
721.96,14698.52
722.36,14660.57
722.77,14626.59
723.17,14598.12
723.57,14576.37
723.98,14562.25
724.38,14556.24
724.78,14558.41
725.19,14568.44
725.59,14585.63
725.99,14608.94
726.39,14637.06
726.80,14668.47
727.20,14701.51
727.60,14734.44
728.00,14765.51
728.41,14793.03
728.81,14815.43
729.21,14831.34
729.61,14839.60
730.02,14839.39
730.42,14830.22
730.82,14811.94
