wavelength,counts
188.65,92.17
189.10,92.17
189.56,92.17
190.01,92.17
190.47,92.17
190.92,109.68
191.37,117.61
191.83,127.05
192.28,138.00
192.74,150.39
193.19,164.09
193.64,178.89
194.10,194.95
194.55,212.14
195.01,230.29
195.46,249.25
195.91,268.84
196.37,288.87
196.82,309.16
197.27,329.53
197.73,349.79
198.18,369.77
198.63,389.30
199.09,408.24
199.54,426.45
199.99,443.83
200.45,460.32
200.90,475.88
201.35,490.47
201.81,504.10
202.26,516.77
202.71,528.44
203.17,539.11
203.62,548.71
204.07,557.19
204.53,564.46
204.98,570.44
205.43,575.07
205.89,578.31
206.34,580.16
206.79,580.68
207.25,579.95
207.70,578.13
208.15,575.41
208.60,572.00
209.06,568.14
209.51,564.06
209.96,559.98
210.41,556.07
210.87,552.48
211.32,549.31
211.77,546.61
212.23,544.40
212.68,542.68
213.13,541.41
213.58,540.58
214.04,540.14
214.49,540.06
214.94,540.32
215.39,540.88
215.84,541.69
216.30,542.70
216.75,543.84
217.20,545.03
217.65,546.21
218.11,547.29
218.56,548.24
219.01,549.00
219.46,549.58
219.91,549.95
220.37,550.13
220.82,550.12
221.27,549.93
221.72,549.55
222.17,548.99
222.63,548.23
223.08,547.27
223.53,546.11
223.98,544.79
224.43,543.34
224.88,541.82
225.34,540.31
225.79,538.86
226.24,537.55
226.69,536.45
227.14,535.58
227.59,534.99
228.04,534.65
228.50,534.56
228.95,534.67
229.40,534.94
229.85,535.30
230.30,535.71
230.75,536.12
231.20,536.52
231.66,536.93
232.11,537.39
232.56,537.96
233.01,538.75
233.46,539.87
233.91,541.41
234.36,543.46
234.81,546.07
235.26,549.24
235.71,552.93
236.17,557.03
236.62,561.40
237.07,565.84
237.52,570.18
237.97,574.22
238.42,577.78
238.87,580.75
239.32,583.03
239.77,584.59
240.22,585.45
240.67,585.66
241.12,585.31
241.57,584.49
242.02,583.32
242.47,581.90
242.92,580.31
243.37,578.64
243.82,576.94
244.27,575.25
244.72,573.60
245.18,571.98
245.63,570.41
246.08,568.88
246.53,567.38
246.98,565.89
247.43,564.39
247.88,562.87
248.33,561.30
248.78,559.67
249.23,557.95
249.68,556.15
250.12,554.30
250.57,552.43
251.02,550.61
251.47,548.94
251.92,547.51
252.37,546.42
252.82,545.76
253.27,545.58
253.72,545.89
254.17,546.65
254.62,547.77
255.07,549.12
255.52,550.55
255.97,551.93
256.42,553.11
256.87,554.01
257.32,554.58
257.77,554.83
258.22,554.82
258.66,554.62
259.11,554.34
259.56,554.08
260.01,553.93
260.46,553.95
260.91,554.16
261.36,554.60
261.81,555.24
262.26,556.07
262.71,557.08
263.15,558.25
263.60,559.56
264.05,561.00
264.50,562.56
264.95,564.20
265.40,565.89
265.85,567.56
266.30,569.15
266.74,570.55
267.19,571.69
267.64,572.47
268.09,572.81
268.54,572.67
268.99,572.03
269.43,570.91
269.88,569.36
270.33,567.46
270.78,565.33
271.23,563.09
271.68,560.86
272.12,558.75
272.57,556.86
273.02,555.25
273.47,553.95
273.92,552.97
274.36,552.27
274.81,551.80
275.26,551.50
275.71,551.30
276.16,551.12
276.60,550.91
277.05,550.63
277.50,550.27
277.95,549.81
278.39,549.32
278.84,548.84
279.29,548.46
279.74,548.29
280.19,548.42
280.63,548.94
281.08,549.94
281.53,551.45
281.98,553.48
282.42,555.97
282.87,558.85
283.32,561.97
283.76,565.18
284.21,568.29
284.66,571.14
285.11,573.57
285.55,575.47
286.00,576.78
286.45,577.48
286.89,577.63
287.34,577.31
287.79,576.65
288.23,575.83
288.68,574.99
289.13,574.30
289.58,573.88
290.02,573.82
290.47,574.15
290.92,574.87
291.36,575.91
291.81,577.21
292.26,578.62
292.70,580.04
293.15,581.35
293.60,582.44
294.04,583.23
294.49,583.67
294.93,583.73
295.38,583.41
295.83,582.71
296.27,581.69
296.72,580.40
297.17,578.89
297.61,577.26
298.06,575.59
298.50,573.98
298.95,572.51
299.40,571.26
299.84,570.28
300.29,569.59
300.73,569.19
301.18,569.03
301.63,569.03
302.07,569.11
302.52,569.17
302.96,569.14
303.41,568.95
303.85,568.60
304.30,568.09
304.75,567.49
305.19,566.86
305.64,566.30
306.08,565.90
306.53,565.73
306.97,565.86
307.42,566.29
307.86,567.04
308.31,568.08
308.75,569.37
309.20,570.86
309.65,572.49
310.09,574.21
310.54,575.97
310.98,577.74
311.43,579.47
311.87,581.13
312.32,582.71
312.76,584.18
313.21,585.54
313.65,586.78
314.10,587.91
314.54,588.94
314.99,589.91
315.43,590.85
315.87,591.78
316.32,592.72
316.76,593.71
317.21,594.71
317.65,595.72
318.10,596.66
318.54,597.49
318.99,598.12
319.43,598.50
319.88,598.58
320.32,598.36
320.76,597.85
321.21,597.11
321.65,596.21
322.10,595.22
322.54,594.21
322.99,593.22
323.43,592.26
323.87,591.33
324.32,590.36
324.76,589.30
325.21,588.09
325.65,586.70
326.09,585.11
326.54,583.34
326.98,581.46
327.42,579.56
327.87,577.74
328.31,576.14
328.76,574.89
329.20,574.11
329.64,573.88
330.09,574.28
330.53,575.33
330.97,577.05
331.42,579.37
331.86,582.21
332.30,585.44
332.75,588.93
333.19,592.48
333.63,595.92
334.08,599.06
334.52,601.72
334.96,603.76
335.41,605.06
335.85,605.54
336.29,605.17
336.74,603.98
337.18,602.04
337.62,599.45
338.06,596.37
338.51,592.97
338.95,589.46
339.39,586.03
339.84,582.88
340.28,580.16
340.72,578.00
341.16,576.50
341.61,575.66
342.05,575.48
342.49,575.88
342.93,576.73
343.38,577.88
343.82,579.16
344.26,580.42
344.70,581.51
345.15,582.31
345.59,582.78
346.03,582.90
346.47,582.70
346.92,582.26
347.36,581.65
347.80,580.98
348.24,580.32
348.68,579.72
349.13,579.22
349.57,578.84
350.01,578.56
350.45,578.40
350.89,578.36
351.34,578.44
351.78,578.68
352.22,579.11
352.66,579.77
353.10,580.68
353.54,581.82
353.99,583.17
354.43,584.64
354.87,586.16
355.31,587.60
355.75,588.86
356.19,589.83
356.63,590.43
357.08,590.62
357.52,590.40
357.96,589.80
358.40,588.87
358.84,587.71
359.28,586.41
359.72,585.09
360.16,583.84
360.60,582.77
361.05,581.96
361.49,581.46
361.93,581.32
362.37,581.55
362.81,582.14
363.25,583.07
363.69,584.29
364.13,585.75
364.57,587.37
365.01,589.07
365.45,590.80
365.89,592.48
366.33,594.07
366.78,595.54
367.22,596.87
367.66,598.06
368.10,599.14
368.54,600.11
368.98,601.01
369.42,601.86
369.86,602.68
370.30,603.47
370.74,604.24
371.18,605.00
371.62,605.77
372.06,606.58
372.50,607.48
372.94,608.50
373.38,609.73
373.82,611.22
374.26,613.02
374.70,615.15
375.14,617.58
375.58,620.28
376.02,623.13
376.46,626.00
376.90,628.74
377.34,631.20
377.78,633.24
378.21,634.77
378.65,635.76
379.09,636.21
379.53,636.18
379.97,635.81
380.41,635.20
380.85,634.52
381.29,633.89
381.73,633.44
382.17,633.25
382.61,633.38
383.05,633.87
383.49,634.74
383.93,635.99
384.36,637.62
384.80,639.62
385.24,641.99
385.68,644.70
386.12,647.74
386.56,651.07
387.00,654.64
387.44,658.38
387.87,662.22
388.31,666.07
388.75,669.82
389.19,673.36
389.63,676.61
390.07,679.48
390.51,681.90
390.94,683.84
391.38,685.30
391.82,686.31
392.26,686.93
392.70,687.27
393.14,687.43
393.57,687.56
394.01,687.78
394.45,688.21
394.89,688.96
395.33,690.10
395.76,691.67
396.20,693.68
396.64,696.13
397.08,698.99
397.52,702.21
397.95,705.75
398.39,709.57
398.83,713.62
399.27,717.85
399.70,722.23
400.14,726.70
400.58,731.22
401.02,735.73
401.45,740.19
401.89,744.55
402.33,748.79
402.77,752.89
403.20,756.89
403.64,760.81
404.08,764.72
404.52,768.68
404.95,772.77
405.39,777.04
405.83,781.53
406.26,786.24
406.70,791.17
407.14,796.28
407.58,801.52
408.01,806.84
408.45,812.21
408.89,817.58
409.32,822.95
409.76,828.30
410.20,833.65
410.63,838.98
411.07,844.31
411.51,849.61
411.94,854.88
412.38,860.12
412.82,865.31
413.25,870.49
413.69,875.69
414.12,880.97
414.56,886.39
415.00,892.02
415.43,897.94
415.87,904.19
416.31,910.82
416.74,917.83
417.18,925.22
417.61,932.96
418.05,941.02
418.49,949.33
418.92,957.83
419.36,966.43
419.79,975.04
420.23,983.58
420.67,991.94
421.10,1000.04
421.54,1007.83
421.97,1015.26
422.41,1022.34
422.84,1029.10
423.28,1035.59
423.71,1041.91
424.15,1048.16
424.59,1054.46
425.02,1060.90
425.46,1067.60
425.89,1074.64
426.33,1082.08
426.76,1089.97
427.20,1098.30
427.63,1107.03
428.07,1116.09
428.50,1125.35
428.94,1134.68
429.37,1143.91
429.81,1152.92
430.24,1161.57
430.68,1169.83
431.11,1177.68
431.55,1185.21
431.98,1192.51
432.42,1199.76
432.85,1207.13
433.28,1214.76
433.72,1222.81
434.15,1231.36
434.59,1240.45
435.02,1250.10
435.46,1260.26
435.89,1270.85
436.33,1281.76
436.76,1292.85
437.19,1303.96
437.63,1314.90
438.06,1325.50
438.50,1335.58
438.93,1345.00
439.37,1353.67
439.80,1361.57
440.23,1368.76
440.67,1375.36
441.10,1381.56
441.53,1387.56
441.97,1393.59
442.40,1399.81
442.84,1406.35
443.27,1413.26
443.70,1420.54
444.14,1428.15
444.57,1435.99
445.00,1444.00
445.44,1452.13
445.87,1460.37
446.30,1468.72
446.74,1477.23
447.17,1485.95
447.60,1494.90
448.04,1504.08
448.47,1513.45
448.90,1522.93
449.34,1532.43
449.77,1541.84
450.20,1551.08
450.64,1560.09
451.07,1568.86
451.50,1577.45
451.93,1585.94
452.37,1594.46
452.80,1603.15
453.23,1612.15
453.67,1621.59
454.10,1631.58
454.53,1642.21
454.96,1653.53
455.40,1665.57
455.83,1678.32
456.26,1691.77
456.69,1705.85
457.13,1720.47
457.56,1735.49
457.99,1750.76
458.42,1766.09
458.86,1781.31
459.29,1796.26
459.72,1810.84
460.15,1825.02
460.58,1838.85
461.02,1852.45
461.45,1866.01
461.88,1879.73
462.31,1893.79
462.74,1908.32
463.18,1923.36
463.61,1938.83
464.04,1954.58
464.47,1970.40
464.90,1986.06
465.33,2001.39
465.77,2016.33
466.20,2030.94
466.63,2045.45
467.06,2060.22
467.49,2075.68
467.92,2092.28
468.35,2110.40
468.78,2130.31
469.22,2152.09
469.65,2175.63
470.08,2200.68
470.51,2226.90
470.94,2253.92
471.37,2281.46
471.80,2309.35
472.23,2337.63
472.66,2366.51
473.10,2396.33
473.53,2427.50
473.96,2460.40
474.39,2495.28
474.82,2532.21
475.25,2571.01
475.68,2611.31
476.11,2652.57
476.54,2694.18
476.97,2735.57
477.40,2776.32
477.83,2816.23
478.26,2855.36
478.69,2893.98
479.12,2932.57
479.55,2971.62
479.98,3011.59
480.41,3052.79
480.84,3095.25
481.27,3138.75
481.70,3182.82
482.13,3226.81
482.56,3270.02
482.99,3311.86
483.42,3351.90
483.85,3390.03
484.28,3426.41
484.71,3461.53
485.14,3496.00
485.57,3530.55
486.00,3565.76
486.43,3602.03
486.86,3639.43
487.29,3677.71
487.72,3716.29
488.15,3754.43
488.58,3791.33
489.01,3826.28
489.44,3858.88
489.87,3889.06
490.30,3917.20
490.72,3944.01
491.15,3970.49
491.58,3997.73
492.01,4026.71
492.44,4058.13
492.87,4092.28
493.30,4128.94
493.73,4167.44
494.16,4206.71
494.59,4245.46
495.01,4282.43
495.44,4316.55
495.87,4347.18
496.30,4374.20
496.73,4398.06
497.16,4419.73
497.59,4440.52
498.01,4461.91
498.44,4485.30
498.87,4511.75
499.30,4541.79
499.73,4575.36
500.16,4611.74
500.58,4649.67
501.01,4687.57
501.44,4723.75
501.87,4756.68
502.30,4785.29
502.72,4809.10
503.15,4828.37
503.58,4844.01
504.01,4857.51
504.44,4870.67
504.86,4885.33
505.29,4903.07
505.72,4924.97
506.15,4951.43
506.57,4982.09
507.00,5015.90
507.43,5051.27
507.86,5086.30
508.28,5119.11
508.71,5148.11
509.14,5172.22
509.57,5191.06
509.99,5205.02
510.42,5215.15
510.85,5223.06
511.27,5230.67
511.70,5239.90
512.13,5252.47
512.56,5269.61
512.98,5291.88
513.41,5319.15
513.84,5350.58
514.26,5384.78
514.69,5419.96
515.12,5454.22
515.54,5485.78
515.97,5513.26
516.40,5535.84
516.82,5553.41
517.25,5566.52
517.68,5576.40
518.10,5584.70
518.53,5593.35
518.95,5604.21
519.38,5618.88
519.81,5638.43
520.23,5663.24
520.66,5692.96
521.09,5726.54
521.51,5762.35
521.94,5798.43
522.36,5832.77
522.79,5863.54
523.22,5889.44
523.64,5909.80
524.07,5924.72
524.49,5935.04
524.92,5942.23
525.34,5948.13
525.77,5954.70
526.20,5963.73
526.62,5976.59
527.05,5994.00
527.47,6015.94
527.90,6041.64
528.32,6069.73
528.75,6098.35
529.17,6125.45
529.60,6149.07
530.02,6167.56
530.45,6179.80
530.87,6185.38
531.30,6184.62
531.72,6178.55
532.15,6168.80
532.57,6157.44
533.00,6146.69
533.42,6138.73
533.85,6135.43
534.27,6138.13
534.70,6147.52
535.12,6163.51
535.55,6185.31
535.97,6211.44
536.40,6239.96
536.82,6268.65
537.25,6295.27
537.67,6317.85
538.09,6334.89
538.52,6345.53
538.94,6349.70
539.37,6348.11
539.79,6342.18
540.22,6333.88
540.64,6325.50
541.06,6319.39
541.49,6317.68
541.91,6322.03
542.34,6333.41
542.76,6352.02
543.18,6377.20
543.61,6407.55
544.03,6441.07
544.46,6475.37
544.88,6507.94
545.30,6536.44
545.73,6558.94
546.15,6574.16
546.57,6581.56
547.00,6581.47
547.42,6574.98
547.84,6563.90
548.27,6550.52
548.69,6537.36
549.11,6526.95
549.54,6521.51
549.96,6522.74
550.38,6531.62
550.81,6548.30
551.23,6572.09
551.65,6601.54
552.07,6634.54
552.50,6668.60
552.92,6701.09
553.34,6729.50
553.77,6751.71
554.19,6766.24
554.61,6772.38
555.03,6770.30
555.46,6761.00
555.88,6746.24
556.30,6728.38
556.72,6710.11
557.15,6694.21
557.57,6683.27
557.99,6679.41
558.41,6684.09
558.84,6697.94
559.26,6720.71
559.68,6751.31
560.10,6787.85
560.52,6827.91
560.95,6868.68
561.37,6907.32
561.79,6941.17
562.21,6968.04
562.63,6986.45
563.06,6995.74
563.48,6996.17
563.90,6988.91
564.32,6975.91
564.74,6959.77
565.16,6943.46
565.58,6930.03
566.01,6922.36
566.43,6922.82
566.85,6933.12
567.27,6954.04
567.69,6985.43
568.11,7026.15
568.53,7074.18
568.96,7126.78
569.38,7180.71
569.80,7232.52
570.22,7278.82
570.64,7316.61
571.06,7343.54
571.48,7358.10
571.90,7359.81
572.32,7349.23
572.74,7327.95
573.16,7298.44
573.58,7263.81
574.01,7227.54
574.43,7193.14
574.85,7163.83
575.27,7142.24
575.69,7130.20
576.11,7128.56
576.53,7137.15
576.95,7154.88
577.37,7179.78
577.79,7209.31
578.21,7240.54
578.63,7270.48
579.05,7296.29
579.47,7315.58
579.89,7326.57
580.31,7328.24
580.73,7320.40
581.15,7303.74
581.57,7279.71
581.99,7250.46
582.41,7218.62
582.83,7187.13
583.25,7158.99
583.67,7137.01
584.09,7123.58
584.51,7120.48
584.93,7128.70
585.34,7148.41
585.76,7178.89
586.18,7218.62
586.60,7265.41
587.02,7316.58
587.44,7369.18
587.86,7420.25
588.28,7467.06
588.70,7507.30
589.12,7539.29
589.54,7562.10
589.95,7575.62
590.37,7580.55
590.79,7578.39
591.21,7571.31
591.63,7561.97
592.05,7553.36
592.47,7548.53
592.89,7550.37
593.30,7561.38
593.72,7583.45
594.14,7617.71
594.56,7664.39
594.98,7722.84
595.40,7791.52
595.81,7868.15
596.23,7949.87
596.65,8033.45
597.07,8115.59
597.49,8193.10
597.90,8263.20
598.32,8323.64
598.74,8372.93
599.16,8410.35
599.58,8435.98
599.99,8450.68
600.41,8455.95
600.83,8453.85
601.25,8446.74
601.66,8437.18
602.08,8427.67
602.50,8420.53
602.92,8417.69
603.33,8420.63
603.75,8430.23
604.17,8446.79
604.59,8470.00
605.00,8498.98
605.42,8532.37
605.84,8568.41
606.25,8605.08
606.67,8640.23
607.09,8671.74
607.51,8697.61
607.92,8716.17
608.34,8726.12
608.76,8726.71
609.17,8717.71
609.59,8699.52
610.01,8673.11
610.42,8639.99
610.84,8602.11
611.26,8561.74
611.67,8521.31
612.09,8483.26
612.51,8449.88
612.92,8423.14
613.34,8404.55
613.75,8395.11
614.17,8395.18
614.59,8404.53
615.00,8422.37
615.42,8447.41
615.83,8477.96
616.25,8512.12
616.67,8547.86
617.08,8583.19
617.50,8616.28
617.91,8645.56
618.33,8669.80
618.75,8688.17
619.16,8700.23
619.58,8705.99
619.99,8705.87
620.41,8700.64
620.82,8691.43
621.24,8679.61
621.65,8666.75
622.07,8654.52
622.48,8644.60
622.90,8638.54
623.31,8637.71
623.73,8643.20
624.14,8655.72
624.56,8675.59
624.97,8702.69
625.39,8736.49
625.80,8776.07
626.22,8820.18
626.63,8867.32
627.05,8915.85
627.46,8964.07
627.88,9010.29
628.29,9052.98
628.71,9090.81
629.12,9122.73
629.54,9148.04
629.95,9166.40
630.37,9177.88
630.78,9182.93
631.19,9182.35
631.61,9177.26
632.02,9169.01
632.44,9159.10
632.85,9149.09
633.26,9140.51
633.68,9134.75
634.09,9132.99
634.51,9136.16
634.92,9144.87
635.33,9159.40
635.75,9179.71
636.16,9205.45
636.57,9235.96
636.99,9270.39
637.40,9307.70
637.82,9346.73
638.23,9386.27
638.64,9425.15
639.06,9462.24
639.47,9496.57
639.88,9527.30
640.30,9553.85
640.71,9575.83
641.12,9593.15
641.53,9605.97
641.95,9614.75
642.36,9620.17
642.77,9623.18
643.19,9624.87
643.60,9626.48
644.01,9629.22
644.42,9634.28
644.84,9642.67
645.25,9655.16
645.66,9672.24
646.08,9694.05
646.49,9720.44
646.90,9750.95
647.31,9784.91
647.73,9821.48
648.14,9859.75
648.55,9898.81
648.96,9937.80
649.37,9975.92
649.79,10012.48
650.20,10046.90
650.61,10078.68
651.02,10107.40
651.43,10132.72
651.85,10154.41
652.26,10172.31
652.67,10186.40
653.08,10196.84
653.49,10203.93
653.90,10208.17
654.32,10210.25
654.73,10211.00
655.14,10211.38
655.55,10212.41
655.96,10215.10
656.37,10220.39
656.78,10229.10
657.20,10241.85
657.61,10259.01
658.02,10280.74
658.43,10306.91
658.84,10337.15
659.25,10370.87
659.66,10407.30
660.07,10445.54
660.48,10484.61
660.90,10523.53
661.31,10561.34
661.72,10597.19
662.13,10630.38
662.54,10660.37
662.95,10686.82
663.36,10709.59
663.77,10728.72
664.18,10744.43
664.59,10757.07
665.00,10767.08
665.41,10775.01
665.82,10781.40
666.23,10786.84
666.64,10791.88
667.05,10797.06
667.46,10802.91
667.87,10809.90
668.28,10818.53
668.69,10829.22
669.10,10842.40
669.51,10858.46
669.92,10877.71
670.33,10900.32
670.74,10926.35
671.15,10955.63
671.56,10987.77
671.97,11022.15
672.38,11057.95
672.79,11094.18
673.20,11129.74
673.61,11163.54
674.02,11194.58
674.42,11222.00
674.83,11245.20
675.24,11263.81
675.65,11277.77
676.06,11287.25
676.47,11292.67
676.88,11294.60
677.29,11293.73
677.70,11290.77
678.11,11286.43
678.51,11281.35
678.92,11276.09
679.33,11271.08
679.74,11266.68
680.15,11263.16
680.56,11260.78
680.97,11259.76
681.37,11260.39
681.78,11262.98
682.19,11267.90
682.60,11275.53
683.01,11286.28
683.42,11300.44
683.82,11318.24
684.23,11339.67
684.64,11364.55
685.05,11392.43
685.45,11422.64
685.86,11454.29
686.27,11486.37
686.68,11517.77
687.09,11547.40
687.49,11574.24
687.90,11597.44
688.31,11616.33
688.72,11630.51
689.12,11639.81
689.53,11644.31
689.94,11644.35
690.35,11640.44
690.75,11633.23
691.16,11623.49
691.57,11612.04
691.97,11599.71
692.38,11587.28
692.79,11575.45
693.20,11564.86
693.60,11556.04
694.01,11549.40
694.42,11545.31
694.82,11544.04
695.23,11545.81
695.64,11550.79
696.04,11559.10
696.45,11570.78
696.86,11585.82
697.26,11604.06
697.67,11625.24
698.07,11648.97
698.48,11674.68
698.89,11701.71
699.29,11729.26
699.70,11756.50
700.11,11782.54
700.51,11806.54
700.92,11827.75
701.32,11845.51
701.73,11859.37
702.14,11869.05
702.54,11874.46
702.95,11875.75
703.35,11873.23
703.76,11867.42
704.16,11858.95
704.57,11848.57
704.97,11837.11
705.38,11825.39
705.79,11814.29
706.19,11804.59
706.60,11797.05
707.00,11792.30
707.41,11790.86
707.81,11793.10
708.22,11799.22
708.62,11809.22
709.03,11822.95
709.43,11840.05
709.84,11860.04
710.24,11882.31
710.65,11906.17
711.05,11930.94
711.46,11955.92
711.86,11980.46
712.27,12004.00
712.67,12026.03
713.07,12046.15
713.48,12063.99
713.88,12079.27
714.29,12091.73
714.69,12101.18
715.10,12107.47
715.50,12110.52
715.90,12110.35
716.31,12107.06
716.71,12100.87
717.12,12092.12
717.52,12081.26
717.92,12068.84
718.33,12055.50
718.73,12041.90
719.14,12028.71
719.54,12016.57
719.94,12006.06
720.35,11997.63
720.75,11991.61
721.15,11988.20
721.56,11987.43
721.96,11989.19
722.36,11993.24
722.77,11999.26
723.17,12006.83
723.57,12015.54
723.98,12024.95
724.38,12034.67
724.78,12044.37
725.19,12053.76
725.59,12062.63
725.99,12070.80
726.39,12078.11
726.80,12084.43
727.20,12089.62
727.60,12093.53
728.00,12096.02
728.41,12096.97
728.81,12096.25
729.21,12093.81
729.61,12089.61
730.02,12083.65
730.42,12075.97
730.82,12066.64
731.22,12055.73
731.63,12043.32
732.03,12029.52
732.43,12014.43
732.83,11998.22
733.23,11981.06
733.64,11963.21
