wavelength,counts
188.65,33.30
189.10,33.30
189.56,33.30
190.01,33.30
190.47,33.30
190.92,67.33
191.37,81.49
191.83,97.52
192.28,115.16
192.74,134.07
193.19,153.83
193.64,173.98
194.10,194.94
194.55,216.56
195.01,238.69
195.46,261.22
195.91,284.01
196.37,306.95
196.82,329.87
197.27,352.62
197.73,375.03
198.18,396.90
198.63,418.05
199.09,438.27
199.54,457.40
199.99,475.26
200.45,491.73
200.90,506.72
201.35,520.18
201.81,532.10
202.26,542.50
202.71,551.42
203.17,558.95
203.62,565.18
204.07,570.22
204.53,574.20
204.98,577.24
205.43,579.50
205.89,581.11
206.34,582.20
206.79,582.87
207.25,583.21
207.70,583.25
208.15,582.99
208.60,582.39
209.06,581.38
209.51,579.88
209.96,577.81
210.41,575.10
210.87,571.74
211.32,567.75
211.77,563.21
212.23,558.24
212.68,553.02
213.13,547.73
213.58,542.57
214.04,537.73
214.49,533.35
214.94,529.53
215.39,526.34
215.84,523.79
216.30,521.83
216.75,520.39
217.20,519.41
217.65,518.80
218.11,518.48
218.56,518.42
219.01,518.58
219.46,518.99
219.91,519.67
220.37,520.65
220.82,521.98
221.27,523.68
221.72,525.74
222.17,528.12
222.63,530.75
223.08,533.53
223.53,536.32
223.98,538.97
224.43,541.32
224.88,543.25
225.34,544.66
225.79,545.49
226.24,545.77
226.69,545.53
227.14,544.89
227.59,543.99
228.04,542.97
228.50,541.96
228.95,541.09
229.40,540.43
229.85,539.98
230.30,539.73
230.75,539.60
231.20,539.49
231.66,539.29
232.11,538.92
232.56,538.31
233.01,537.43
233.46,536.29
233.91,534.96
234.36,533.53
234.81,532.09
235.26,530.74
235.71,529.56
236.17,528.61
236.62,527.90
237.07,527.43
237.52,527.18
237.97,527.10
238.42,527.15
238.87,527.32
239.32,527.59
239.77,527.97
240.22,528.47
240.67,529.10
241.12,529.88
241.57,530.80
242.02,531.83
242.47,532.94
242.92,534.06
243.37,535.15
243.82,536.18
244.27,537.12
244.72,537.97
245.18,538.79
245.63,539.62
246.08,540.56
246.53,541.67
246.98,543.02
247.43,544.68
247.88,546.64
248.33,548.88
248.78,551.33
249.23,553.88
249.68,556.38
250.12,558.68
250.57,560.64
251.02,562.10
251.47,562.97
251.92,563.18
252.37,562.73
252.82,561.63
253.27,559.98
253.72,557.89
254.17,555.48
254.62,552.91
255.07,550.32
255.52,547.84
255.97,545.57
256.42,543.59
256.87,541.96
257.32,540.71
257.77,539.84
258.22,539.36
258.66,539.24
259.11,539.45
259.56,539.97
260.01,540.75
260.46,541.78
260.91,543.00
261.36,544.38
261.81,545.90
262.26,547.52
262.71,549.21
263.15,550.96
263.60,552.75
264.05,554.59
264.50,556.47
264.95,558.40
265.40,560.38
265.85,562.42
266.30,564.48
266.74,566.52
267.19,568.47
267.64,570.26
268.09,571.78
268.54,572.92
268.99,573.61
269.43,573.78
269.88,573.41
270.33,572.53
270.78,571.20
271.23,569.53
271.68,567.65
272.12,565.68
272.57,563.76
273.02,562.01
273.47,560.51
273.92,559.30
274.36,558.39
274.81,557.77
275.26,557.40
275.71,557.19
276.16,557.09
276.60,556.99
277.05,556.84
277.50,556.56
277.95,556.09
278.39,555.43
278.84,554.57
279.29,553.53
279.74,552.36
280.19,551.16
280.63,549.99
281.08,548.98
281.53,548.21
281.98,547.78
282.42,547.76
282.87,548.18
283.32,549.05
283.76,550.34
284.21,552.00
284.66,553.94
285.11,556.04
285.55,558.18
286.00,560.23
286.45,562.07
286.89,563.57
287.34,564.62
287.79,565.16
288.23,565.14
288.68,564.55
289.13,563.42
289.58,561.83
290.02,559.89
290.47,557.74
290.92,555.54
291.36,553.44
291.81,551.57
292.26,550.06
292.70,548.97
293.15,548.31
293.60,548.08
294.04,548.20
294.49,548.59
294.93,549.17
295.38,549.86
295.83,550.58
296.27,551.30
296.72,552.00
297.17,552.70
297.61,553.42
298.06,554.20
298.50,555.04
298.95,555.96
299.40,556.91
299.84,557.86
300.29,558.73
300.73,559.44
301.18,559.92
301.63,560.09
302.07,559.94
302.52,559.45
302.96,558.68
303.41,557.70
303.85,556.60
304.30,555.49
304.75,554.48
305.19,553.65
305.64,553.04
306.08,552.68
306.53,552.52
306.97,552.50
307.42,552.53
307.86,552.53
308.31,552.39
308.75,552.05
309.20,551.50
309.65,550.74
310.09,549.85
310.54,548.92
310.98,548.07
311.43,547.44
311.87,547.12
312.32,547.22
312.76,547.77
313.21,548.77
313.65,550.17
314.10,551.89
314.54,553.80
314.99,555.78
315.43,557.68
315.87,559.37
316.32,560.77
316.76,561.81
317.21,562.48
317.65,562.80
318.10,562.85
318.54,562.71
318.99,562.50
319.43,562.33
319.88,562.28
320.32,562.42
320.76,562.77
321.21,563.31
321.65,564.01
322.10,564.81
322.54,565.67
322.99,566.55
323.43,567.43
323.87,568.33
324.32,569.30
324.76,570.41
325.21,571.70
325.65,573.25
326.09,575.06
326.54,577.12
326.98,579.37
327.42,581.70
327.87,583.97
328.31,586.03
328.76,587.71
329.20,588.89
329.64,589.45
330.09,589.34
330.53,588.55
330.97,587.13
331.42,585.19
331.86,582.87
332.30,580.34
332.75,577.79
333.19,575.40
333.63,573.33
334.08,571.72
334.52,570.69
334.96,570.28
335.41,570.53
335.85,571.40
336.29,572.81
336.74,574.66
337.18,576.78
337.62,579.00
338.06,581.13
338.51,583.00
338.95,584.46
339.39,585.38
339.84,585.72
340.28,585.47
340.72,584.68
341.16,583.46
341.61,581.93
342.05,580.26
342.49,578.56
342.93,576.95
343.38,575.52
343.82,574.28
344.26,573.24
344.70,572.36
345.15,571.59
345.59,570.88
346.03,570.21
346.47,569.56
346.92,568.95
347.36,568.44
347.80,568.08
348.24,567.96
348.68,568.12
349.13,568.61
349.57,569.45
350.01,570.62
350.45,572.06
350.89,573.69
351.34,575.43
351.78,577.15
352.22,578.76
352.66,580.14
353.10,581.22
353.54,581.93
353.99,582.24
354.43,582.14
354.87,581.65
355.31,580.82
355.75,579.71
356.19,578.42
356.63,577.05
357.08,575.71
357.52,574.50
357.96,573.53
358.40,572.88
358.84,572.61
359.28,572.77
359.72,573.37
360.16,574.40
360.60,575.83
361.05,577.59
361.49,579.60
361.93,581.77
362.37,584.01
362.81,586.20
363.25,588.24
363.69,590.07
364.13,591.61
364.57,592.84
365.01,593.74
365.45,594.34
365.89,594.69
366.33,594.84
366.78,594.86
367.22,594.82
367.66,594.77
368.10,594.74
368.54,594.76
368.98,594.83
369.42,594.94
369.86,595.07
370.30,595.22
370.74,595.38
371.18,595.56
371.62,595.79
372.06,596.10
372.50,596.52
372.94,597.10
373.38,597.87
373.82,598.85
374.26,600.04
374.70,601.44
375.14,603.03
375.58,604.79
376.02,606.67
376.46,608.67
376.90,610.74
377.34,612.86
377.78,614.99
378.21,617.11
378.65,619.17
379.09,621.10
379.53,622.85
379.97,624.35
380.41,625.54
380.85,626.37
381.29,626.84
381.73,626.95
382.17,626.76
382.61,626.37
383.05,625.88
383.49,625.42
383.93,625.10
384.36,625.04
384.80,625.27
385.24,625.84
385.68,626.72
386.12,627.86
386.56,629.19
387.00,630.65
387.44,632.17
387.87,633.74
388.31,635.38
388.75,637.14
389.19,639.11
389.63,641.40
390.07,644.09
390.51,647.25
390.94,650.89
391.38,654.98
391.82,659.42
392.26,664.07
392.70,668.77
393.14,673.34
393.57,677.61
394.01,681.44
394.45,684.77
394.89,687.55
395.33,689.82
395.76,691.63
396.20,693.09
396.64,694.28
397.08,695.33
397.52,696.33
397.95,697.37
398.39,698.50
398.83,699.78
399.27,701.28
399.70,703.04
400.14,705.11
400.58,707.56
401.02,710.44
401.45,713.81
401.89,717.70
402.33,722.14
402.77,727.12
403.20,732.63
403.64,738.62
404.08,745.04
404.52,751.85
404.95,758.99
405.39,766.44
405.83,774.18
406.26,782.20
406.70,790.50
407.14,799.09
407.58,807.94
408.01,817.03
408.45,826.32
408.89,835.72
409.32,845.16
409.76,854.54
410.20,863.77
410.63,872.76
411.07,881.45
411.51,889.80
411.94,897.79
412.38,905.45
412.82,912.80
413.25,919.87
413.69,926.72
414.12,933.35
414.56,939.78
415.00,946.00
415.43,951.99
415.87,957.72
416.31,963.17
416.74,968.36
417.18,973.31
417.61,978.11
418.05,982.89
418.49,987.79
418.92,992.99
419.36,998.66
419.79,1004.95
420.23,1011.97
420.67,1019.78
421.10,1028.39
421.54,1037.73
421.97,1047.70
422.41,1058.17
422.84,1068.97
423.28,1079.93
423.71,1090.89
424.15,1101.74
424.59,1112.37
425.02,1122.75
425.46,1132.88
425.89,1142.83
426.33,1152.69
426.76,1162.60
427.20,1172.70
427.63,1183.10
428.07,1193.90
428.50,1205.16
428.94,1216.87
429.37,1228.95
429.81,1241.31
430.24,1253.80
430.68,1266.25
431.11,1278.52
431.55,1290.50
431.98,1302.12
432.42,1313.34
432.85,1324.20
433.28,1334.76
433.72,1345.10
434.15,1355.31
434.59,1365.48
435.02,1375.65
435.46,1385.83
435.89,1396.00
436.33,1406.10
436.76,1416.03
437.19,1425.71
437.63,1435.04
438.06,1443.98
438.50,1452.52
438.93,1460.68
439.37,1468.57
439.80,1476.29
440.23,1483.99
440.67,1491.84
441.10,1499.97
441.53,1508.51
441.97,1517.55
442.40,1527.14
442.84,1537.31
443.27,1548.02
443.70,1559.24
444.14,1570.89
444.57,1582.86
445.00,1595.05
445.44,1607.34
445.87,1619.58
446.30,1631.68
446.74,1643.50
447.17,1654.96
447.60,1665.99
448.04,1676.55
448.47,1686.61
448.90,1696.20
449.34,1705.35
449.77,1714.14
450.20,1722.66
450.64,1731.06
451.07,1739.48
451.50,1748.10
451.93,1757.10
452.37,1766.65
452.80,1776.94
453.23,1788.10
453.67,1800.24
454.10,1813.45
454.53,1827.76
454.96,1843.17
455.40,1859.63
455.83,1877.07
456.26,1895.38
456.69,1914.39
457.13,1933.92
457.56,1953.74
457.99,1973.60
458.42,1993.25
458.86,2012.47
459.29,2031.09
459.72,2049.00
460.15,2066.20
460.58,2082.77
461.02,2098.87
461.45,2114.72
461.88,2130.52
462.31,2146.48
462.74,2162.76
463.18,2179.43
463.61,2196.51
464.04,2214.00
464.47,2231.85
464.90,2250.03
465.33,2268.56
465.77,2287.47
466.20,2306.86
466.63,2326.83
467.06,2347.47
467.49,2368.89
467.92,2391.12
468.35,2414.23
468.78,2438.23
469.22,2463.16
469.65,2489.10
470.08,2516.13
470.51,2544.39
470.94,2573.98
471.37,2604.99
471.80,2637.43
472.23,2671.20
472.66,2706.12
473.10,2741.94
473.53,2778.35
473.96,2815.11
474.39,2852.06
474.82,2889.19
475.25,2926.66
475.68,2964.76
476.11,3003.88
476.54,3044.41
476.97,3086.63
477.40,3130.66
477.83,3176.38
478.26,3223.46
478.69,3271.40
479.12,3319.60
479.55,3367.52
479.98,3414.79
480.41,3461.25
480.84,3507.03
481.27,3552.46
481.70,3598.04
482.13,3644.26
482.56,3691.51
482.99,3739.94
483.42,3789.42
483.85,3839.55
484.28,3889.76
484.71,3939.39
485.14,3987.90
485.57,4034.95
486.00,4080.50
486.43,4124.82
486.86,4168.44
487.29,4211.98
487.72,4256.03
488.15,4300.99
488.58,4346.95
489.01,4393.63
489.44,4440.47
489.87,4486.70
490.30,4531.53
490.72,4574.31
491.15,4614.71
491.58,4652.77
492.01,4688.95
492.44,4723.99
492.87,4758.81
493.30,4794.25
493.73,4830.95
494.16,4869.14
494.59,4908.63
495.01,4948.79
495.44,4988.72
495.87,5027.41
496.30,5063.98
496.73,5097.90
497.16,5129.10
497.59,5158.02
498.01,5185.60
498.44,5213.05
498.87,5241.65
499.30,5272.50
499.73,5306.27
500.16,5343.10
500.58,5382.49
501.01,5423.43
501.44,5464.55
501.87,5504.37
502.30,5541.59
502.72,5575.31
503.15,5605.19
503.58,5631.53
504.01,5655.16
504.44,5677.31
504.86,5699.33
505.29,5722.50
505.72,5747.71
506.15,5775.38
506.57,5805.37
507.00,5837.02
507.43,5869.33
507.86,5901.15
508.28,5931.44
508.71,5959.46
509.14,5984.92
509.57,6008.05
509.99,6029.53
510.42,6050.36
510.85,6071.65
511.27,6094.41
511.70,6119.31
512.13,6146.60
512.56,6175.99
512.98,6206.75
513.41,6237.82
513.84,6268.04
514.26,6296.32
514.69,6321.92
515.12,6344.58
515.54,6364.55
515.97,6382.64
516.40,6400.01
516.82,6418.03
517.25,6438.01
517.68,6460.98
518.10,6487.47
518.53,6517.45
518.95,6550.26
519.38,6584.74
519.81,6619.40
520.23,6652.67
520.66,6683.16
521.09,6709.92
521.51,6732.55
521.94,6751.37
522.36,6767.31
522.79,6781.77
523.22,6796.44
523.64,6812.94
524.07,6832.62
524.49,6856.27
524.92,6883.98
525.34,6915.13
525.77,6948.44
526.20,6982.18
526.62,7014.42
527.05,7043.36
527.47,7067.60
527.90,7086.39
528.32,7099.73
528.75,7108.40
529.17,7113.85
529.60,7118.00
530.02,7122.90
530.45,7130.49
530.87,7142.26
531.30,7159.04
531.72,7180.89
532.15,7207.06
532.57,7236.18
533.00,7266.36
533.42,7295.58
533.85,7321.93
534.27,7343.93
534.70,7360.73
535.12,7372.27
535.55,7379.29
535.97,7383.24
536.40,7386.08
536.82,7390.03
537.25,7397.23
537.67,7409.44
538.09,7427.80
538.52,7452.61
538.94,7483.31
539.37,7518.48
539.79,7556.03
540.22,7593.46
540.64,7628.22
541.06,7657.98
541.49,7681.04
541.91,7696.51
542.34,7704.48
542.76,7706.02
543.18,7703.01
543.61,7697.95
544.03,7693.61
544.46,7692.61
544.88,7697.12
545.30,7708.55
545.73,7727.32
546.15,7752.86
546.57,7783.66
547.00,7817.44
547.42,7851.51
547.84,7883.07
548.27,7909.62
548.69,7929.27
549.11,7941.00
549.54,7944.77
549.96,7941.60
550.38,7933.39
550.81,7922.72
551.23,7912.50
551.65,7905.61
552.07,7904.54
552.50,7910.99
552.92,7925.70
553.34,7948.29
553.77,7977.27
554.19,8010.24
554.61,8044.17
555.03,8075.74
555.46,8101.81
555.88,8119.78
556.30,8127.93
556.72,8125.67
557.15,8113.61
557.57,8093.48
557.99,8068.00
558.41,8040.54
558.84,8014.72
559.26,7994.03
559.68,7981.40
560.10,7978.88
560.52,7987.42
560.95,8006.74
561.37,8035.40
561.79,8070.93
562.21,8110.18
562.63,8149.63
563.06,8185.84
563.48,8215.82
563.90,8237.40
564.32,8249.46
564.74,8252.09
565.16,8246.57
565.58,8235.26
566.01,8221.32
566.43,8208.37
566.85,8200.11
567.27,8199.86
567.69,8210.16
568.11,8232.50
568.53,8267.05
568.96,8312.62
569.38,8366.73
569.80,8425.80
570.22,8485.54
570.64,8541.31
571.06,8588.65
571.48,8623.69
571.90,8643.61
572.32,8646.91
572.74,8633.57
573.16,8605.11
573.58,8564.40
574.01,8515.41
574.43,8462.78
574.85,8411.37
575.27,8365.76
575.69,8329.81
576.11,8306.26
576.53,8296.51
576.95,8300.47
577.37,8316.63
577.79,8342.23
578.21,8373.58
578.63,8406.45
579.05,8436.48
579.47,8459.67
579.89,8472.77
580.31,8473.56
580.73,8461.09
581.15,8435.77
581.57,8399.29
581.99,8354.44
582.41,8304.85
582.83,8254.62
583.25,8207.88
583.67,8168.44
584.09,8139.41
584.51,8122.96
584.93,8120.09
585.34,8130.62
585.76,8153.20
586.18,8185.54
586.60,8224.58
587.02,8266.88
587.44,8308.87
587.86,8347.29
588.28,8379.44
588.70,8403.46
589.12,8418.54
589.54,8424.96
589.95,8424.11
590.37,8418.39
590.79,8410.93
591.21,8405.36
591.63,8405.44
592.05,8414.69
592.47,8436.06
592.89,8471.65
593.30,8522.46
593.72,8588.33
594.14,8667.88
594.56,8758.68
594.98,8857.39
595.40,8960.11
595.81,9062.62
596.23,9160.82
596.65,9251.03
597.07,9330.27
597.49,9396.55
597.90,9449.00
598.32,9487.93
598.74,9514.77
599.16,9531.95
599.58,9542.66
599.99,9550.52
600.41,9559.24
600.83,9572.30
601.25,9592.54
601.66,9621.98
602.08,9661.55
602.50,9711.04
602.92,9769.09
603.33,9833.33
603.75,9900.60
604.17,9967.16
604.59,10029.12
605.00,10082.66
605.42,10124.44
605.84,10151.80
606.25,10163.05
606.67,10157.54
607.09,10135.79
607.51,10099.40
607.92,10050.96
608.34,9993.86
608.76,9932.03
609.17,9869.66
609.59,9810.87
610.01,9759.42
610.42,9718.39
610.84,9690.02
611.26,9675.51
611.67,9674.97
612.09,9687.44
612.51,9711.00
612.92,9742.96
613.34,9780.11
613.75,9818.96
614.17,9856.09
614.59,9888.37
615.00,9913.21
615.42,9928.72
615.83,9933.87
616.25,9928.52
616.67,9913.39
617.08,9890.04
617.50,9860.69
617.91,9828.09
618.33,9795.29
618.75,9765.46
619.16,9741.62
619.58,9726.42
619.99,9721.98
620.41,9729.67
620.82,9750.02
621.24,9782.70
621.65,9826.52
622.07,9879.52
622.48,9939.13
622.90,10002.38
623.31,10066.07
623.73,10127.09
624.14,10182.54
624.56,10230.00
624.97,10267.61
625.39,10294.22
625.80,10309.44
626.22,10313.60
626.63,10307.77
627.05,10293.64
627.46,10273.41
627.88,10249.70
628.29,10225.32
628.71,10203.16
629.12,10185.95
629.54,10176.15
629.95,10175.72
630.37,10186.01
630.78,10207.65
631.19,10240.51
631.61,10283.66
632.02,10335.47
632.44,10393.71
632.85,10455.70
633.26,10518.55
633.68,10579.33
634.09,10635.30
634.51,10684.12
634.92,10723.98
635.33,10753.75
635.75,10773.03
636.16,10782.14
636.57,10782.13
636.99,10774.66
637.40,10761.92
637.82,10746.42
638.23,10730.88
638.64,10718.02
639.06,10710.37
639.47,10710.12
639.88,10718.96
640.30,10737.99
640.71,10767.63
641.12,10807.66
641.53,10857.19
641.95,10914.77
642.36,10978.51
642.77,11046.19
643.19,11115.42
643.60,11183.78
644.01,11248.96
644.42,11308.86
644.84,11361.70
645.25,11406.10
645.66,11441.13
646.08,11466.37
646.49,11481.90
646.90,11488.36
647.31,11486.87
647.73,11479.03
648.14,11466.83
648.55,11452.56
648.96,11438.69
649.37,11427.72
649.79,11422.01
650.20,11423.63
650.61,11434.23
651.02,11454.89
651.43,11486.07
651.85,11527.58
652.26,11578.56
652.67,11637.59
653.08,11702.77
653.49,11771.86
653.90,11842.41
654.32,11911.95
654.73,11978.10
655.14,12038.70
655.55,12091.93
655.96,12136.38
656.37,12171.09
656.78,12195.61
657.20,12209.97
657.61,12214.70
658.02,12210.83
658.43,12199.78
658.84,12183.35
659.25,12163.65
659.66,12142.96
660.07,12123.66
660.48,12108.09
660.90,12098.44
661.31,12096.60
661.72,12104.09
662.13,12121.91
662.54,12150.54
662.95,12189.84
663.36,12239.10
663.77,12297.05
664.18,12361.91
664.59,12431.56
665.00,12503.59
665.41,12575.48
665.82,12644.74
666.23,12709.04
666.64,12766.31
667.05,12814.84
667.46,12853.37
667.87,12881.08
668.28,12897.66
668.69,12903.27
669.10,12898.58
669.51,12884.71
669.92,12863.24
670.33,12836.10
670.74,12805.59
671.15,12774.21
671.56,12744.57
671.97,12719.24
672.38,12700.58
672.79,12690.63
673.20,12690.93
673.61,12702.41
674.02,12725.39
674.42,12759.50
674.83,12803.74
675.24,12856.61
675.65,12916.14
676.06,12980.09
676.47,13046.09
676.88,13111.70
677.29,13174.64
677.70,13232.77
678.11,13284.27
678.51,13327.61
678.92,13361.64
679.33,13385.57
679.74,13399.05
680.15,13402.11
680.56,13395.20
680.97,13379.19
681.37,13355.33
681.78,13325.24
682.19,13290.82
682.60,13254.23
683.01,13217.77
683.42,13183.74
683.82,13154.39
684.23,13131.72
684.64,13117.43
685.05,13112.80
685.45,13118.60
685.86,13135.12
686.27,13162.08
686.68,13198.75
687.09,13243.92
687.49,13296.04
687.90,13353.27
688.31,13413.57
688.72,13474.78
689.12,13534.71
689.53,13591.22
689.94,13642.28
690.35,13686.09
690.75,13721.11
691.16,13746.18
691.57,13760.54
691.97,13763.94
692.38,13756.60
692.79,13739.27
693.20,13713.17
693.60,13679.99
694.01,13641.76
694.42,13600.76
694.82,13559.45
695.23,13520.31
695.64,13485.71
696.04,13457.79
696.45,13438.37
696.86,13428.84
697.26,13430.09
697.67,13442.47
698.07,13465.82
698.48,13499.47
698.89,13542.28
699.29,13592.74
699.70,13649.03
700.11,13709.11
700.51,13770.83
700.92,13831.96
701.32,13890.34
701.73,13943.91
702.14,13990.83
702.54,14029.54
702.95,14058.82
703.35,14077.90
703.76,14086.42
704.16,14084.53
704.57,14072.83
704.97,14052.30
705.38,14024.31
705.79,13990.49
706.19,13952.66
706.60,13912.74
707.00,13872.67
707.41,13834.37
707.81,13799.64
708.22,13770.10
708.62,13747.21
709.03,13732.12
709.43,13725.71
709.84,13728.52
710.24,13740.74
710.65,13762.18
711.05,13792.26
711.46,13830.07
711.86,13874.40
712.27,13923.76
712.67,13976.51
713.07,14030.88
713.48,14085.12
713.88,14137.54
714.29,14186.57
714.69,14230.86
715.10,14269.25
715.50,14300.82
715.90,14324.89
716.31,14340.95
716.71,14348.73
717.12,14348.11
717.52,14339.18
717.92,14322.23
718.33,14297.76
718.73,14266.52
719.14,14229.55
719.54,14188.11
719.94,14143.75
720.35,14098.18
720.75,14053.27
721.15,14010.90
721.56,13972.93
721.96,13941.02
722.36,13916.65
722.77,13900.94
723.17,13894.69
723.57,13898.26
723.98,13911.65
724.38,13934.43
724.78,13965.78
725.19,14004.56
725.59,14049.32
725.99,14098.39
726.39,14149.95
726.80,14202.11
727.20,14252.98
727.60,14300.75
728.00,14343.75
728.41,14380.48
728.81,14409.65
729.21,14430.22
729.61,14441.38
730.02,14442.59
730.42,14433.58
730.82,14414.35
731.22,14385.22
731.63,14346.79
732.03,14300.01
