wavelength,counts
188.65,81.94
189.10,81.94
189.56,81.94
190.01,81.94
190.47,81.94
190.92,99.22
191.37,107.33
191.83,117.20
192.28,128.86
192.74,142.31
193.19,157.43
193.64,174.01
194.10,192.18
194.55,211.73
195.01,232.45
195.46,254.09
195.91,276.41
196.37,299.14
196.82,322.03
197.27,344.83
197.73,367.27
198.18,389.13
198.63,410.17
199.09,430.15
199.54,448.88
199.99,466.18
200.45,481.91
200.90,495.99
201.35,508.38
201.81,519.10
202.26,528.23
202.71,535.87
203.17,542.18
203.62,547.29
204.07,551.40
204.53,554.64
204.98,557.18
205.43,559.14
205.89,560.63
206.34,561.72
206.79,562.48
207.25,562.93
207.70,563.11
208.15,563.02
208.60,562.67
209.06,562.08
209.51,561.26
209.96,560.24
210.41,559.06
210.87,557.73
211.32,556.31
211.77,554.82
212.23,553.28
212.68,551.70
213.13,550.11
213.58,548.51
214.04,546.93
214.49,545.39
214.94,543.95
215.39,542.66
215.84,541.59
216.30,540.81
216.75,540.39
217.20,540.38
217.65,540.79
218.11,541.61
218.56,542.80
219.01,544.27
219.46,545.88
219.91,547.50
220.37,548.97
220.82,550.13
221.27,550.86
221.72,551.08
222.17,550.75
222.63,549.92
223.08,548.68
223.53,547.18
223.98,545.59
224.43,544.10
224.88,542.90
225.34,542.13
225.79,541.87
226.24,542.14
226.69,542.92
227.14,544.11
227.59,545.56
228.04,547.11
228.50,548.59
228.95,549.84
229.40,550.73
229.85,551.17
230.30,551.11
230.75,550.57
231.20,549.59
231.66,548.25
232.11,546.66
232.56,544.93
233.01,543.17
233.46,541.48
233.91,539.94
234.36,538.62
234.81,537.56
235.26,536.78
235.71,536.33
236.17,536.19
236.62,536.38
237.07,536.89
237.52,537.70
237.97,538.76
238.42,540.00
238.87,541.35
239.32,542.71
239.77,543.95
240.22,544.97
240.67,545.69
241.12,546.05
241.57,546.03
242.02,545.65
242.47,544.96
242.92,544.07
243.37,543.06
243.82,542.03
244.27,541.07
244.72,540.23
245.18,539.52
245.63,538.95
246.08,538.48
246.53,538.07
246.98,537.67
247.43,537.24
247.88,536.75
248.33,536.18
248.78,535.52
249.23,534.80
249.68,534.02
250.12,533.23
250.57,532.47
251.02,531.82
251.47,531.32
251.92,531.07
252.37,531.12
252.82,531.54
253.27,532.36
253.72,533.60
254.17,535.25
254.62,537.25
255.07,539.52
255.52,541.93
255.97,544.35
256.42,546.62
256.87,548.59
257.32,550.14
257.77,551.17
258.22,551.64
258.66,551.55
259.11,550.97
259.56,550.00
260.01,548.79
260.46,547.50
260.91,546.29
261.36,545.31
261.81,544.65
262.26,544.37
262.71,544.45
263.15,544.84
263.60,545.44
264.05,546.10
264.50,546.70
264.95,547.10
265.40,547.21
265.85,546.99
266.30,546.44
266.74,545.62
267.19,544.60
267.64,543.50
268.09,542.43
268.54,541.48
268.99,540.73
269.43,540.22
269.88,539.98
270.33,540.00
270.78,540.24
271.23,540.66
271.68,541.23
272.12,541.91
272.57,542.66
273.02,543.47
273.47,544.31
273.92,545.18
274.36,546.06
274.81,546.96
275.26,547.86
275.71,548.75
276.16,549.61
276.60,550.40
277.05,551.09
277.50,551.64
277.95,552.01
278.39,552.16
278.84,552.09
279.29,551.81
279.74,551.36
280.19,550.81
280.63,550.25
281.08,549.78
281.53,549.50
281.98,549.46
282.42,549.73
282.87,550.30
283.32,551.14
283.76,552.17
284.21,553.28
284.66,554.36
285.11,555.30
285.55,556.00
286.00,556.41
286.45,556.53
286.89,556.37
287.34,556.03
287.79,555.60
288.23,555.20
288.68,554.96
289.13,554.95
289.58,555.25
290.02,555.86
290.47,556.75
290.92,557.85
291.36,559.05
291.81,560.25
292.26,561.31
292.70,562.15
293.15,562.68
293.60,562.85
294.04,562.65
294.49,562.09
294.93,561.19
295.38,560.01
295.83,558.60
296.27,557.03
296.72,555.40
297.17,553.79
297.61,552.30
298.06,551.03
298.50,550.06
298.95,549.46
299.40,549.26
299.84,549.48
300.29,550.08
300.73,550.98
301.18,552.08
301.63,553.26
302.07,554.39
302.52,555.36
302.96,556.08
303.41,556.53
303.85,556.69
304.30,556.63
304.75,556.44
305.19,556.23
305.64,556.14
306.08,556.28
306.53,556.72
306.97,557.53
307.42,558.67
307.86,560.10
308.31,561.72
308.75,563.41
309.20,565.05
309.65,566.52
310.09,567.75
310.54,568.71
310.98,569.40
311.43,569.85
311.87,570.14
312.32,570.34
312.76,570.52
313.21,570.71
313.65,570.95
314.10,571.20
314.54,571.45
314.99,571.64
315.43,571.71
315.87,571.61
316.32,571.30
316.76,570.75
317.21,569.97
317.65,568.98
318.10,567.82
318.54,566.55
318.99,565.23
319.43,563.94
319.88,562.74
320.32,561.68
320.76,560.81
321.21,560.14
321.65,559.68
322.10,559.43
322.54,559.36
322.99,559.47
323.43,559.72
323.87,560.10
324.32,560.61
324.76,561.23
325.21,561.95
325.65,562.75
326.09,563.59
326.54,564.42
326.98,565.17
327.42,565.76
327.87,566.11
328.31,566.15
328.76,565.85
329.20,565.20
329.64,564.23
330.09,563.02
330.53,561.67
330.97,560.28
331.42,558.98
331.86,557.86
332.30,557.00
332.75,556.41
333.19,556.11
333.63,556.07
334.08,556.22
334.52,556.50
334.96,556.87
335.41,557.28
335.85,557.68
336.29,558.06
336.74,558.40
337.18,558.69
337.62,558.93
338.06,559.11
338.51,559.22
338.95,559.24
339.39,559.19
339.84,559.07
340.28,558.93
340.72,558.81
341.16,558.77
341.61,558.87
342.05,559.17
342.49,559.68
342.93,560.42
343.38,561.35
343.82,562.44
344.26,563.60
344.70,564.79
345.15,565.94
345.59,567.02
346.03,568.03
346.47,568.97
346.92,569.91
347.36,570.87
347.80,571.90
348.24,573.03
348.68,574.24
349.13,575.50
349.57,576.72
350.01,577.82
350.45,578.70
350.89,579.25
351.34,579.40
351.78,579.12
352.22,578.40
352.66,577.29
353.10,575.86
353.54,574.24
353.99,572.55
354.43,570.92
354.87,569.50
355.31,568.38
355.75,567.65
356.19,567.35
356.63,567.48
357.08,568.02
357.52,568.91
357.96,570.08
358.40,571.44
358.84,572.92
359.28,574.45
359.72,575.97
360.16,577.48
360.60,578.96
361.05,580.43
361.49,581.90
361.93,583.40
362.37,584.93
362.81,586.48
363.25,588.05
363.69,589.59
364.13,591.05
364.57,592.39
365.01,593.55
365.45,594.50
365.89,595.21
366.33,595.68
366.78,595.94
367.22,596.03
367.66,596.04
368.10,596.05
368.54,596.16
368.98,596.45
369.42,597.00
369.86,597.83
370.30,598.95
370.74,600.32
371.18,601.85
371.62,603.41
372.06,604.88
372.50,606.11
372.94,606.96
373.38,607.34
373.82,607.20
374.26,606.54
374.70,605.43
375.14,604.00
375.58,602.40
376.02,600.83
376.46,599.49
376.90,598.57
377.34,598.21
377.78,598.51
378.21,599.51
378.65,601.18
379.09,603.44
379.53,606.18
379.97,609.24
380.41,612.50
380.85,615.81
381.29,619.09
381.73,622.25
382.17,625.27
382.61,628.11
383.05,630.78
383.49,633.28
383.93,635.61
384.36,637.76
384.80,639.74
385.24,641.54
385.68,643.19
386.12,644.69
386.56,646.12
387.00,647.52
387.44,648.98
387.87,650.55
388.31,652.29
388.75,654.24
389.19,656.38
389.63,658.70
390.07,661.12
390.51,663.58
390.94,665.97
391.38,668.22
391.82,670.25
392.26,672.05
392.70,673.61
393.14,674.97
393.57,676.23
394.01,677.48
394.45,678.84
394.89,680.43
395.33,682.36
395.76,684.70
396.20,687.47
396.64,690.67
397.08,694.27
397.52,698.18
397.95,702.32
398.39,706.59
398.83,710.88
399.27,715.12
399.70,719.25
400.14,723.22
400.58,727.03
401.02,730.67
401.45,734.16
401.89,737.56
402.33,740.90
402.77,744.24
403.20,747.66
403.64,751.23
404.08,755.03
404.52,759.12
404.95,763.57
405.39,768.43
405.83,773.75
406.26,779.55
406.70,785.82
407.14,792.55
407.58,799.69
408.01,807.19
408.45,815.00
408.89,823.03
409.32,831.24
409.76,839.58
410.20,847.99
410.63,856.46
411.07,864.95
411.51,873.46
411.94,881.97
412.38,890.48
412.82,898.98
413.25,907.46
413.69,915.92
414.12,924.33
414.56,932.69
415.00,940.97
415.43,949.15
415.87,957.23
416.31,965.18
416.74,972.99
417.18,980.65
417.61,988.17
418.05,995.53
418.49,1002.77
418.92,1009.91
419.36,1016.98
419.79,1024.03
420.23,1031.10
420.67,1038.25
421.10,1045.49
421.54,1052.84
421.97,1060.31
422.41,1067.88
422.84,1075.51
423.28,1083.19
423.71,1090.90
424.15,1098.64
424.59,1106.44
425.02,1114.38
425.46,1122.54
425.89,1131.05
426.33,1140.00
426.76,1149.52
427.20,1159.65
427.63,1170.43
428.07,1181.80
428.50,1193.68
428.94,1205.94
429.37,1218.39
429.81,1230.87
430.24,1243.22
430.68,1255.34
431.11,1267.16
431.55,1278.68
431.98,1289.97
432.42,1301.11
432.85,1312.21
433.28,1323.37
433.72,1334.69
434.15,1346.18
434.59,1357.85
435.02,1369.65
435.46,1381.50
435.89,1393.31
436.33,1404.98
436.76,1416.42
437.19,1427.54
437.63,1438.29
438.06,1448.63
438.50,1458.52
438.93,1467.96
439.37,1476.94
439.80,1485.48
440.23,1493.61
440.67,1501.37
441.10,1508.84
441.53,1516.08
441.97,1523.19
442.40,1530.26
442.84,1537.36
443.27,1544.56
443.70,1551.90
444.14,1559.39
444.57,1567.01
445.00,1574.73
445.44,1582.49
445.87,1590.27
446.30,1598.07
446.74,1605.94
447.17,1613.97
447.60,1622.33
448.04,1631.20
448.47,1640.79
448.90,1651.25
449.34,1662.69
449.77,1675.11
450.20,1688.38
450.64,1702.27
451.07,1716.45
451.50,1730.57
451.93,1744.26
452.37,1757.25
452.80,1769.38
453.23,1780.66
453.67,1791.24
454.10,1801.43
454.53,1811.62
454.96,1822.24
455.40,1833.71
455.83,1846.35
456.26,1860.40
456.69,1875.92
457.13,1892.90
457.56,1911.17
457.99,1930.49
458.42,1950.60
458.86,1971.16
459.29,1991.88
459.72,2012.47
460.15,2032.67
460.58,2052.31
461.02,2071.22
461.45,2089.37
461.88,2106.77
462.31,2123.52
462.74,2139.79
463.18,2155.80
463.61,2171.80
464.04,2188.02
464.47,2204.69
464.90,2221.94
465.33,2239.88
465.77,2258.55
466.20,2277.99
466.63,2298.19
467.06,2319.20
467.49,2341.09
467.92,2363.96
468.35,2387.93
468.78,2413.13
469.22,2439.62
469.65,2467.41
470.08,2496.44
470.51,2526.57
470.94,2557.61
471.37,2589.42
471.80,2621.88
472.23,2654.98
472.66,2688.82
473.10,2723.60
473.53,2759.59
473.96,2797.09
474.39,2836.31
474.82,2877.39
475.25,2920.28
475.68,2964.80
476.11,3010.67
476.54,3057.53
476.97,3105.00
477.40,3152.80
477.83,3200.74
478.26,3248.73
478.69,3296.80
479.12,3344.99
479.55,3393.35
479.98,3441.86
480.41,3490.40
480.84,3538.79
481.27,3586.79
481.70,3634.18
482.13,3680.86
482.56,3726.83
482.99,3772.31
483.42,3817.66
483.85,3863.31
484.28,3909.72
484.71,3957.21
485.14,4005.92
485.57,4055.69
486.00,4106.14
486.43,4156.64
486.86,4206.48
487.29,4254.99
487.72,4301.68
488.15,4346.36
488.58,4389.15
489.01,4430.55
489.44,4471.27
489.87,4512.11
490.30,4553.81
490.72,4596.88
491.15,4641.46
491.58,4687.33
492.01,4733.94
492.44,4780.52
492.87,4826.26
493.30,4870.51
493.73,4912.92
494.16,4953.57
494.59,4992.96
495.01,5031.90
495.44,5071.41
495.87,5112.41
496.30,5155.60
496.73,5201.19
497.16,5248.91
497.59,5297.93
498.01,5347.07
498.44,5394.92
498.87,5440.18
499.30,5481.86
499.73,5519.50
500.16,5553.27
500.58,5583.97
501.01,5612.88
501.44,5641.56
501.87,5671.54
502.30,5704.06
502.72,5739.85
503.15,5778.96
503.58,5820.76
504.01,5864.10
504.44,5907.45
504.86,5949.23
505.29,5988.06
505.72,6023.06
506.15,6053.94
506.57,6081.09
507.00,6105.48
507.43,6128.45
507.86,6151.50
508.28,6175.98
508.71,6202.83
509.14,6232.46
509.57,6264.62
509.99,6298.52
510.42,6332.92
510.85,6366.44
511.27,6397.74
511.70,6425.86
512.13,6450.31
512.56,6471.24
512.98,6489.38
513.41,6505.92
513.84,6522.31
514.26,6539.95
514.69,6560.00
515.12,6583.12
515.54,6609.33
515.97,6638.04
516.40,6668.08
516.82,6697.94
517.25,6726.01
517.68,6750.84
518.10,6771.44
518.53,6787.42
518.95,6799.12
519.38,6807.54
519.81,6814.24
520.23,6821.07
520.66,6829.88
521.09,6842.27
521.51,6859.27
521.94,6881.23
522.36,6907.68
522.79,6937.44
523.22,6968.74
523.64,6999.48
524.07,7027.59
524.49,7051.24
524.92,7069.21
525.34,7081.02
525.77,7087.05
526.20,7088.46
526.62,7087.05
527.05,7084.99
527.47,7084.49
527.90,7087.48
528.32,7095.31
528.75,7108.53
529.17,7126.83
529.60,7149.05
530.02,7173.40
530.45,7197.68
530.87,7219.67
531.30,7237.44
531.72,7249.70
532.15,7255.95
532.57,7256.62
533.00,7252.97
533.42,7246.95
533.85,7240.85
534.27,7237.00
534.70,7237.40
535.12,7243.41
535.55,7255.53
535.97,7273.31
536.40,7295.46
536.82,7319.94
537.25,7344.32
537.67,7366.11
538.09,7383.11
538.52,7393.77
538.94,7397.38
539.37,7394.20
539.79,7385.46
540.22,7373.18
540.64,7359.90
541.06,7348.36
541.49,7341.11
541.91,7340.15
542.34,7346.70
542.76,7360.96
543.18,7382.12
543.61,7408.45
544.03,7437.53
544.46,7466.52
544.88,7492.61
545.30,7513.32
545.73,7526.87
546.15,7532.40
546.57,7530.08
547.00,7521.11
547.42,7507.50
547.84,7491.89
548.27,7477.09
548.69,7465.79
549.11,7460.15
549.54,7461.53
549.96,7470.32
550.38,7485.86
550.81,7506.56
551.23,7530.09
551.65,7553.70
552.07,7574.60
552.50,7590.31
552.92,7599.00
553.34,7599.73
553.77,7592.61
554.19,7578.77
554.61,7560.25
555.03,7539.73
555.46,7520.22
555.88,7504.68
556.30,7495.65
556.72,7494.90
557.15,7503.28
557.57,7520.52
557.99,7545.33
558.41,7575.50
558.84,7608.20
559.26,7640.26
559.68,7668.60
560.10,7690.56
560.52,7704.19
560.95,7708.56
561.37,7703.81
561.79,7691.17
562.21,7672.89
562.63,7651.93
563.06,7631.71
563.48,7615.75
563.90,7607.23
564.32,7608.69
564.74,7621.74
565.16,7646.86
565.58,7683.33
566.01,7729.30
566.43,7781.97
566.85,7837.83
567.27,7893.09
567.69,7944.02
568.11,7987.34
568.53,8020.61
568.96,8042.41
569.38,8052.57
569.80,8052.12
570.22,8043.18
570.64,8028.77
571.06,8012.40
571.48,7997.71
571.90,7988.04
572.32,7986.01
572.74,7993.26
573.16,8010.20
573.58,8035.96
574.01,8068.47
574.43,8104.65
574.85,8140.75
575.27,8172.74
575.69,8196.77
576.11,8209.56
576.53,8208.78
576.95,8193.35
577.37,8163.60
577.79,8121.24
578.21,8069.28
578.63,8011.76
579.05,7953.35
579.47,7898.93
579.89,7853.08
580.31,7819.67
580.73,7801.40
581.15,7799.61
581.57,7814.07
581.99,7843.04
582.41,7883.43
582.83,7931.11
583.25,7981.33
583.67,8029.18
584.09,8070.06
584.51,8100.15
584.93,8116.76
585.34,8118.60
585.76,8105.92
586.18,8080.49
586.60,8045.46
587.02,8005.03
587.44,7964.11
587.86,7927.86
588.28,7901.18
588.70,7888.27
589.12,7892.26
589.54,7914.90
589.95,7956.40
590.37,8015.45
590.79,8089.34
591.21,8174.22
591.63,8265.46
592.05,8358.09
592.47,8447.22
592.89,8528.48
593.30,8598.40
593.72,8654.67
594.14,8696.35
594.56,8723.95
594.98,8739.36
595.40,8745.66
595.81,8746.89
596.23,8747.72
596.65,8752.97
597.07,8767.26
597.49,8794.56
597.90,8837.83
598.32,8898.73
598.74,8977.45
599.16,9072.63
599.58,9181.43
599.99,9299.73
600.41,9422.44
600.83,9543.85
601.25,9658.10
601.66,9759.63
602.08,9843.60
602.50,9906.27
602.92,9945.31
603.33,9959.98
603.75,9951.15
604.17,9921.30
604.59,9874.27
605.00,9814.95
605.42,9748.96
605.84,9682.11
606.25,9620.05
606.67,9567.75
607.09,9529.20
607.51,9507.10
607.92,9502.68
608.34,9515.68
608.76,9544.41
609.17,9585.91
609.59,9636.24
610.01,9690.82
610.42,9744.76
610.84,9793.29
611.26,9832.13
611.67,9857.77
612.09,9867.76
612.51,9860.93
612.92,9837.39
613.34,9798.61
613.75,9747.25
614.17,9687.01
614.59,9622.28
615.00,9557.88
615.42,9498.64
615.83,9449.03
616.25,9412.86
616.67,9392.97
617.08,9391.02
617.50,9407.40
617.91,9441.23
618.33,9490.45
618.75,9551.99
619.16,9622.01
619.58,9696.23
619.99,9770.17
620.41,9839.49
620.82,9900.27
621.24,9949.24
621.65,9983.97
622.07,10003.05
622.48,10006.17
622.90,9994.11
623.31,9968.76
623.73,9932.93
624.14,9890.24
624.56,9844.81
624.97,9801.02
625.39,9763.14
625.80,9735.06
626.22,9719.99
626.63,9720.20
627.05,9736.94
627.46,9770.27
627.88,9819.17
628.29,9881.57
628.71,9954.56
629.12,10034.59
629.54,10117.75
629.95,10199.99
630.37,10277.46
630.78,10346.70
631.19,10404.86
631.61,10449.92
632.02,10480.69
632.44,10496.97
632.85,10499.44
633.26,10489.65
633.68,10469.87
634.09,10442.92
634.51,10412.00
634.92,10380.52
635.33,10351.82
635.75,10329.07
636.16,10315.03
636.57,10311.90
636.99,10321.23
637.40,10343.77
637.82,10379.47
638.23,10427.43
638.64,10486.02
639.06,10552.92
639.47,10625.29
639.88,10699.97
640.30,10773.71
640.71,10843.33
641.12,10905.99
641.53,10959.33
641.95,11001.65
642.36,11031.94
642.77,11050.00
643.19,11056.38
643.60,11052.33
644.01,11039.75
644.42,11020.99
644.84,10998.76
645.25,10975.95
645.66,10955.47
646.08,10940.07
646.49,10932.19
646.90,10933.86
647.31,10946.57
647.73,10971.18
648.14,11007.89
648.55,11056.24
648.96,11115.13
649.37,11182.87
649.79,11257.28
650.20,11335.85
650.61,11415.82
651.02,11494.42
651.43,11568.99
651.85,11637.11
652.26,11696.80
652.67,11746.56
653.08,11785.44
653.49,11813.12
653.90,11829.85
654.32,11836.42
654.73,11834.12
655.14,11824.67
655.55,11810.09
655.96,11792.62
656.37,11774.65
656.78,11758.56
657.20,11746.62
657.61,11740.89
658.02,11743.10
658.43,11754.52
658.84,11775.91
659.25,11807.44
659.66,11848.65
660.07,11898.52
660.48,11955.46
660.90,12017.49
661.31,12082.32
661.72,12147.50
662.13,12210.64
662.54,12269.51
662.95,12322.22
663.36,12367.29
663.77,12403.73
664.18,12431.09
664.59,12449.42
665.00,12459.24
665.41,12461.47
665.82,12457.40
666.23,12448.52
666.64,12436.51
667.05,12423.15
667.46,12410.21
667.87,12399.41
668.28,12392.35
668.69,12390.44
669.10,12394.85
669.51,12406.48
669.92,12425.88
670.33,12453.27
670.74,12488.51
671.15,12531.09
671.56,12580.16
671.97,12634.54
672.38,12692.79
672.79,12753.24
673.20,12814.07
673.61,12873.37
674.02,12929.23
674.42,12979.86
674.83,13023.65
675.24,13059.31
675.65,13085.88
676.06,13102.88
676.47,13110.26
676.88,13108.47
677.29,13098.37
677.70,13081.26
678.11,13058.74
678.51,13032.66
678.92,13005.04
679.33,12977.96
679.74,12953.47
680.15,12933.49
680.56,12919.74
680.97,12913.63
681.37,12916.21
681.78,12928.09
682.19,12949.43
682.60,12979.93
683.01,13018.83
683.42,13064.95
683.82,13116.80
684.23,13172.61
684.64,13230.47
685.05,13288.39
685.45,13344.43
685.86,13396.76
686.27,13443.74
686.68,13483.98
687.09,13516.40
687.49,13540.29
687.90,13555.28
688.31,13561.43
688.72,13559.17
689.12,13549.35
689.53,13533.17
689.94,13512.13
690.35,13487.96
690.75,13462.55
691.16,13437.80
691.57,13415.55
691.97,13397.44
692.38,13384.86
692.79,13378.88
693.20,13380.21
693.60,13389.18
694.01,13405.82
694.42,13429.81
694.82,13460.57
695.23,13497.30
695.64,13538.98
696.04,13584.44
696.45,13632.36
696.86,13681.30
697.26,13729.74
697.67,13776.13
698.07,13818.93
698.48,13856.69
698.89,13888.12
699.29,13912.15
699.70,13927.97
700.11,13935.16
700.51,13933.64
700.92,13923.73
701.32,13906.19
701.73,13882.10
702.14,13852.93
702.54,13820.39
702.95,13786.38
703.35,13752.90
703.76,13721.91
704.16,13695.27
704.57,13674.56
704.97,13661.10
705.38,13655.81
705.79,13659.24
706.19,13671.54
706.60,13692.53
707.00,13721.68
707.41,13758.24
707.81,13801.22
708.22,13849.47
708.62,13901.71
709.03,13956.53
709.43,14012.44
709.84,14067.87
710.24,14121.24
710.65,14170.95
711.05,14215.46
711.46,14253.38
711.86,14283.49
712.27,14304.85
712.67,14316.80
713.07,14319.11
713.48,14311.88
713.88,14295.66
714.29,14271.34
714.69,14240.17
715.10,14203.67
715.50,14163.55
715.90,14121.66
716.31,14079.89
716.71,14040.06
717.12,14003.91
717.52,13972.99
717.92,13948.61
718.33,13931.86
718.73,13923.48
719.14,13923.95
719.54,13933.40
719.94,13951.64
720.35,13978.18
720.75,14012.20
721.15,14052.63
721.56,14098.13
721.96,14147.17
722.36,14198.08
722.77,14249.09
723.17,14298.41
723.57,14344.33
723.98,14385.22
724.38,14419.64
724.78,14446.40
725.19,14464.56
725.59,14473.50
725.99,14472.91
726.39,14462.82
726.80,14443.56
727.20,14415.76
727.60,14380.32
728.00,14338.38
728.41,14291.24
728.81,14240.40
729.21,14187.42
729.61,14133.99
730.02,14081.79
730.42,14032.54
730.82,13987.91
731.22,13949.48
731.63,13918.69
732.03,13896.79
732.43,13884.75
