wavelength,counts
188.65,76.82
189.10,76.82
189.56,76.82
190.01,76.82
190.47,76.82
190.92,95.31
191.37,104.09
191.83,114.76
192.28,127.36
192.74,141.81
193.19,157.89
193.64,175.31
194.10,194.07
194.55,213.88
195.01,234.44
195.46,255.45
195.91,276.65
196.37,297.80
196.82,318.71
197.27,339.23
197.73,359.25
198.18,378.65
198.63,397.35
199.09,415.26
199.54,432.29
199.99,448.35
200.45,463.35
200.90,477.19
201.35,489.81
201.81,501.16
202.26,511.21
202.71,519.95
203.17,527.41
203.62,533.66
204.07,538.75
204.53,542.79
204.98,545.89
205.43,548.17
205.89,549.75
206.34,550.74
206.79,551.28
207.25,551.44
207.70,551.32
208.15,550.98
208.60,550.46
209.06,549.78
209.51,548.95
209.96,547.98
210.41,546.86
210.87,545.61
211.32,544.25
211.77,542.82
212.23,541.40
212.68,540.06
213.13,538.88
213.58,537.93
214.04,537.26
214.49,536.91
214.94,536.86
215.39,537.06
215.84,537.45
216.30,537.92
216.75,538.37
217.20,538.71
217.65,538.87
218.11,538.80
218.56,538.49
219.01,537.95
219.46,537.25
219.91,536.44
220.37,535.62
220.82,534.87
221.27,534.27
221.72,533.92
222.17,533.85
222.63,534.13
223.08,534.76
223.53,535.75
223.98,537.08
224.43,538.71
224.88,540.60
225.34,542.70
225.79,544.93
226.24,547.25
226.69,549.58
227.14,551.87
227.59,554.06
228.04,556.09
228.50,557.91
228.95,559.49
229.40,560.79
229.85,561.80
230.30,562.52
230.75,562.97
231.20,563.17
231.66,563.19
232.11,563.05
232.56,562.81
233.01,562.53
233.46,562.22
233.91,561.93
234.36,561.67
234.81,561.44
235.26,561.23
235.71,561.05
236.17,560.88
236.62,560.73
237.07,560.61
237.52,560.53
237.97,560.52
238.42,560.59
238.87,560.76
239.32,561.05
239.77,561.44
240.22,561.91
240.67,562.44
241.12,562.97
241.57,563.46
242.02,563.87
242.47,564.14
242.92,564.26
243.37,564.21
243.82,563.98
244.27,563.59
244.72,563.06
245.18,562.42
245.63,561.70
246.08,560.93
246.53,560.15
246.98,559.36
247.43,558.56
247.88,557.73
248.33,556.83
248.78,555.82
249.23,554.62
249.68,553.20
250.12,551.48
250.57,549.44
251.02,547.08
251.47,544.40
251.92,541.46
252.37,538.35
252.82,535.15
253.27,531.97
253.72,528.94
254.17,526.16
254.62,523.71
255.07,521.67
255.52,520.07
255.97,518.95
256.42,518.31
256.87,518.13
257.32,518.39
257.77,519.05
258.22,520.08
258.66,521.44
259.11,523.07
259.56,524.89
260.01,526.82
260.46,528.78
260.91,530.65
261.36,532.34
261.81,533.74
262.26,534.78
262.71,535.43
263.15,535.68
263.60,535.56
264.05,535.15
264.50,534.57
264.95,533.93
265.40,533.38
265.85,533.06
266.30,533.06
266.74,533.45
267.19,534.29
267.64,535.54
268.09,537.18
268.54,539.11
268.99,541.25
269.43,543.49
269.88,545.75
270.33,547.96
270.78,550.09
271.23,552.11
271.68,554.04
272.12,555.90
272.57,557.69
273.02,559.41
273.47,561.04
273.92,562.52
274.36,563.79
274.81,564.76
275.26,565.35
275.71,565.52
276.16,565.25
276.60,564.55
277.05,563.49
277.50,562.17
277.95,560.71
278.39,559.25
278.84,557.90
279.29,556.77
279.74,555.91
280.19,555.35
280.63,555.07
281.08,555.02
281.53,555.10
281.98,555.24
282.42,555.34
282.87,555.32
283.32,555.14
283.76,554.77
284.21,554.24
284.66,553.58
285.11,552.86
285.55,552.16
286.00,551.54
286.45,551.09
286.89,550.84
287.34,550.84
287.79,551.08
288.23,551.56
288.68,552.22
289.13,553.01
289.58,553.83
290.02,554.59
290.47,555.19
290.92,555.55
291.36,555.57
291.81,555.22
292.26,554.49
292.70,553.38
293.15,551.96
293.60,550.33
294.04,548.59
294.49,546.85
294.93,545.24
295.38,543.84
295.83,542.71
296.27,541.89
296.72,541.39
297.17,541.20
297.61,541.30
298.06,541.67
298.50,542.27
298.95,543.09
299.40,544.11
299.84,545.30
300.29,546.65
300.73,548.11
301.18,549.64
301.63,551.19
302.07,552.71
302.52,554.13
302.96,555.41
303.41,556.52
303.85,557.44
304.30,558.17
304.75,558.75
305.19,559.18
305.64,559.53
306.08,559.82
306.53,560.08
306.97,560.33
307.42,560.61
307.86,560.92
308.31,561.29
308.75,561.76
309.20,562.37
309.65,563.16
310.09,564.19
310.54,565.47
310.98,567.04
311.43,568.88
311.87,570.96
312.32,573.22
312.76,575.56
313.21,577.89
313.65,580.11
314.10,582.14
314.54,583.90
314.99,585.32
315.43,586.37
315.87,587.01
316.32,587.21
316.76,586.97
317.21,586.27
317.65,585.12
318.10,583.53
318.54,581.54
318.99,579.20
319.43,576.60
319.88,573.85
320.32,571.09
320.76,568.47
321.21,566.13
321.65,564.23
322.10,562.88
322.54,562.19
322.99,562.19
323.43,562.90
323.87,564.26
324.32,566.18
324.76,568.50
325.21,571.05
325.65,573.62
326.09,576.02
326.54,578.07
326.98,579.62
327.42,580.56
327.87,580.88
328.31,580.57
328.76,579.72
329.20,578.43
329.64,576.84
330.09,575.10
330.53,573.34
330.97,571.67
331.42,570.17
331.86,568.92
332.30,567.93
332.75,567.22
333.19,566.79
333.63,566.62
334.08,566.71
334.52,567.02
334.96,567.53
335.41,568.20
335.85,568.96
336.29,569.74
336.74,570.47
337.18,571.06
337.62,571.44
338.06,571.57
338.51,571.43
338.95,571.04
339.39,570.44
339.84,569.72
340.28,568.96
340.72,568.27
341.16,567.73
341.61,567.42
342.05,567.37
342.49,567.60
342.93,568.11
343.38,568.88
343.82,569.87
344.26,571.07
344.70,572.44
345.15,573.97
345.59,575.64
346.03,577.43
346.47,579.33
346.92,581.32
347.36,583.36
347.80,585.38
348.24,587.34
348.68,589.14
349.13,590.71
349.57,591.98
350.01,592.89
350.45,593.39
350.89,593.48
351.34,593.17
351.78,592.50
352.22,591.54
352.66,590.37
353.10,589.09
353.54,587.77
353.99,586.48
354.43,585.29
354.87,584.22
355.31,583.28
355.75,582.48
356.19,581.80
356.63,581.23
357.08,580.77
357.52,580.41
357.96,580.14
358.40,579.99
358.84,579.96
359.28,580.04
359.72,580.21
360.16,580.47
360.60,580.76
361.05,581.03
361.49,581.25
361.93,581.35
362.37,581.30
362.81,581.07
363.25,580.67
363.69,580.12
364.13,579.44
364.57,578.69
365.01,577.95
365.45,577.26
365.89,576.69
366.33,576.30
366.78,576.14
367.22,576.24
367.66,576.64
368.10,577.35
368.54,578.37
368.98,579.69
369.42,581.27
369.86,583.05
370.30,584.97
370.74,586.95
371.18,588.89
371.62,590.72
372.06,592.38
372.50,593.83
372.94,595.09
373.38,596.17
373.82,597.15
374.26,598.09
374.70,599.09
375.14,600.21
375.58,601.48
376.02,602.91
376.46,604.45
376.90,606.04
377.34,607.56
377.78,608.90
378.21,609.95
378.65,610.62
379.09,610.87
379.53,610.70
379.97,610.15
380.41,609.33
380.85,608.37
381.29,607.43
381.73,606.68
382.17,606.26
382.61,606.30
383.05,606.86
383.49,607.96
383.93,609.60
384.36,611.69
384.80,614.16
385.24,616.93
385.68,619.92
386.12,623.08
386.56,626.39
387.00,629.85
387.44,633.49
387.87,637.31
388.31,641.34
388.75,645.53
389.19,649.83
389.63,654.14
390.07,658.35
390.51,662.33
390.94,665.97
391.38,669.17
391.82,671.90
392.26,674.15
392.70,675.98
393.14,677.47
393.57,678.74
394.01,679.92
394.45,681.13
394.89,682.48
395.33,684.06
395.76,685.91
396.20,688.06
396.64,690.50
397.08,693.22
397.52,696.16
397.95,699.30
398.39,702.62
398.83,706.09
399.27,709.72
399.70,713.53
400.14,717.56
400.58,721.85
401.02,726.45
401.45,731.38
401.89,736.68
402.33,742.37
402.77,748.45
403.20,754.90
403.64,761.72
404.08,768.86
404.52,776.30
404.95,784.00
405.39,791.93
405.83,800.04
406.26,808.28
406.70,816.57
407.14,824.84
407.58,833.00
408.01,840.94
408.45,848.58
408.89,855.83
409.32,862.62
409.76,868.92
410.20,874.74
410.63,880.10
411.07,885.08
411.51,889.76
411.94,894.26
412.38,898.68
412.82,903.11
413.25,907.63
413.69,912.30
414.12,917.15
414.56,922.19
415.00,927.45
415.43,932.94
415.87,938.68
416.31,944.71
416.74,951.07
417.18,957.83
417.61,965.05
418.05,972.77
418.49,981.04
418.92,989.86
419.36,999.20
419.79,1009.01
420.23,1019.17
420.67,1029.54
421.10,1039.94
421.54,1050.21
421.97,1060.19
422.41,1069.74
422.84,1078.81
423.28,1087.38
423.71,1095.55
424.15,1103.45
424.59,1111.28
425.02,1119.27
425.46,1127.64
425.89,1136.58
426.33,1146.22
426.76,1156.60
427.20,1167.67
427.63,1179.32
428.07,1191.35
428.50,1203.53
428.94,1215.65
429.37,1227.48
429.81,1238.87
430.24,1249.71
430.68,1259.97
431.11,1269.70
431.55,1278.98
431.98,1287.95
432.42,1296.76
432.85,1305.55
433.28,1314.48
433.72,1323.64
434.15,1333.11
434.59,1342.93
435.02,1353.09
435.46,1363.57
435.89,1374.32
436.33,1385.26
436.76,1396.34
437.19,1407.50
437.63,1418.70
438.06,1429.91
438.50,1441.09
438.93,1452.23
439.37,1463.28
439.80,1474.21
440.23,1484.97
440.67,1495.49
441.10,1505.71
441.53,1515.57
441.97,1525.03
442.40,1534.09
442.84,1542.74
443.27,1551.03
443.70,1559.03
444.14,1566.84
444.57,1574.57
445.00,1582.34
445.44,1590.27
445.87,1598.49
446.30,1607.08
446.74,1616.14
447.17,1625.73
447.60,1635.88
448.04,1646.58
448.47,1657.79
448.90,1669.46
449.34,1681.51
449.77,1693.87
450.20,1706.45
450.64,1719.20
451.07,1732.11
451.50,1745.15
451.93,1758.35
452.37,1771.74
452.80,1785.33
453.23,1799.18
453.67,1813.30
454.10,1827.73
454.53,1842.50
454.96,1857.68
455.40,1873.32
455.83,1889.49
456.26,1906.26
456.69,1923.67
457.13,1941.74
457.56,1960.40
457.99,1979.58
458.42,1999.13
458.86,2018.88
459.29,2038.66
459.72,2058.35
460.15,2077.83
460.58,2097.07
461.02,2116.05
461.45,2134.80
461.88,2153.35
462.31,2171.70
462.74,2189.85
463.18,2207.76
463.61,2225.40
464.04,2242.78
464.47,2259.94
464.90,2277.01
465.33,2294.22
465.77,2311.85
466.20,2330.21
466.63,2349.62
467.06,2370.33
467.49,2392.50
467.92,2416.19
468.35,2441.37
468.78,2467.94
469.22,2495.79
469.65,2524.87
470.08,2555.17
470.51,2586.78
470.94,2619.86
471.37,2654.61
471.80,2691.20
472.23,2729.72
472.66,2770.14
473.10,2812.29
473.53,2855.89
473.96,2900.59
474.39,2946.07
474.82,2992.05
475.25,3038.41
475.68,3085.17
476.11,3132.51
476.54,3180.69
476.97,3229.95
477.40,3280.47
477.83,3332.27
478.26,3385.18
478.69,3438.83
479.12,3492.75
479.55,3546.38
479.98,3599.26
480.41,3651.07
480.84,3701.70
481.27,3751.23
481.70,3799.96
482.13,3848.26
482.56,3896.47
482.99,3944.83
483.42,3993.39
483.85,4041.98
484.28,4090.24
484.71,4137.73
485.14,4184.01
485.57,4228.79
486.00,4272.01
486.43,4313.89
486.86,4354.93
487.29,4395.78
487.72,4437.19
488.15,4479.80
488.58,4524.02
489.01,4569.90
489.44,4617.16
489.87,4665.15
490.30,4713.01
490.72,4759.82
491.15,4804.76
491.58,4847.28
492.01,4887.19
492.44,4924.70
492.87,4960.39
493.30,4995.02
493.73,5029.43
494.16,5064.30
494.59,5100.03
495.01,5136.63
495.44,5173.69
495.87,5210.49
496.30,5246.16
496.73,5279.80
497.16,5310.79
497.59,5338.87
498.01,5364.25
498.44,5387.62
498.87,5410.04
499.30,5432.75
499.73,5456.94
500.16,5483.52
500.58,5512.93
501.01,5545.08
501.44,5579.29
501.87,5614.47
502.30,5649.30
502.72,5682.49
503.15,5713.02
503.58,5740.35
504.01,5764.53
504.44,5786.22
504.86,5806.53
505.29,5826.83
505.72,5848.52
506.15,5872.68
506.57,5899.91
507.00,5930.19
507.43,5962.84
507.86,5996.62
508.28,6029.93
508.71,6061.11
509.14,6088.70
509.57,6111.70
509.99,6129.77
510.42,6143.28
510.85,6153.28
511.27,6161.33
511.70,6169.24
512.13,6178.78
512.56,6191.43
512.98,6208.08
513.41,6228.97
513.84,6253.61
514.26,6280.92
514.69,6309.43
515.12,6337.53
515.54,6363.77
515.97,6387.11
516.40,6407.10
516.82,6423.93
517.25,6438.44
517.68,6451.93
518.10,6465.92
518.53,6481.91
518.95,6501.11
519.38,6524.16
519.81,6551.09
520.23,6581.22
520.66,6613.28
521.09,6645.60
521.51,6676.37
521.94,6703.91
522.36,6726.96
522.79,6744.85
523.22,6757.66
523.64,6766.15
524.07,6771.69
524.49,6776.04
524.92,6781.02
525.34,6788.29
525.77,6799.02
526.20,6813.74
526.62,6832.25
527.05,6853.65
527.47,6876.47
527.90,6898.95
528.32,6919.28
528.75,6935.93
529.17,6947.89
529.60,6954.80
530.02,6957.10
530.45,6955.87
530.87,6952.76
531.30,6949.69
531.72,6948.62
532.15,6951.21
532.57,6958.59
533.00,6971.18
533.42,6988.64
533.85,7009.88
534.27,7033.19
534.70,7056.52
535.12,7077.74
535.55,7094.95
535.97,7106.78
536.40,7112.58
536.82,7112.57
537.25,7107.83
537.67,7100.17
538.09,7091.88
538.52,7085.45
538.94,7083.19
539.37,7086.89
539.79,7097.56
540.22,7115.25
540.64,7139.02
541.06,7167.02
541.49,7196.76
541.91,7225.41
542.34,7250.18
542.76,7268.76
543.18,7279.61
543.61,7282.19
544.03,7277.07
544.46,7265.87
544.88,7251.06
545.30,7235.62
545.73,7222.67
546.15,7215.01
546.57,7214.76
547.00,7223.02
547.42,7239.74
547.84,7263.71
548.27,7292.64
548.69,7323.50
549.11,7352.88
549.54,7377.45
549.96,7394.37
550.38,7401.70
550.81,7398.65
551.23,7385.71
551.65,7364.63
552.07,7338.22
552.50,7310.06
552.92,7284.01
553.34,7263.81
553.77,7252.60
554.19,7252.49
554.61,7264.36
555.03,7287.65
555.46,7320.43
555.88,7359.60
556.30,7401.24
556.72,7441.03
557.15,7474.78
557.57,7498.88
557.99,7510.80
558.41,7509.35
558.84,7494.91
559.26,7469.37
559.68,7436.00
560.10,7399.07
560.52,7363.44
560.95,7333.95
561.37,7314.95
561.79,7309.78
562.21,7320.34
562.63,7346.93
563.06,7388.17
563.48,7441.10
563.90,7501.56
564.32,7564.57
564.74,7624.88
565.16,7677.57
565.58,7718.53
566.01,7744.93
566.43,7755.54
566.85,7750.86
567.27,7733.12
567.69,7705.99
568.11,7674.29
568.53,7643.40
568.96,7618.73
569.38,7605.13
569.80,7606.31
570.22,7624.47
570.64,7659.96
571.06,7711.26
571.48,7775.06
571.90,7846.56
572.32,7919.96
572.74,7989.00
573.16,8047.59
573.58,8090.44
574.01,8113.54
574.43,8114.61
574.85,8093.35
575.27,8051.44
575.69,7992.42
576.11,7921.36
576.53,7844.36
576.95,7767.98
577.37,7698.58
577.79,7641.75
578.21,7601.77
578.63,7581.23
579.05,7580.79
579.47,7599.21
579.89,7633.46
580.31,7679.08
580.73,7730.62
581.15,7782.18
581.57,7827.97
581.99,7862.87
582.41,7882.86
582.83,7885.43
583.25,7869.78
583.67,7836.89
584.09,7789.42
584.51,7731.49
584.93,7668.29
585.34,7605.59
585.76,7549.26
586.18,7504.69
586.60,7476.35
587.02,7467.35
587.44,7479.23
587.86,7511.82
588.28,7563.29
588.70,7630.34
589.12,7708.55
589.54,7792.73
589.95,7877.45
590.37,7957.48
590.79,8028.26
591.21,8086.29
591.63,8129.40
592.05,8156.98
592.47,8170.01
592.89,8171.01
593.30,8163.75
593.72,8153.01
594.14,8144.07
594.56,8142.26
594.98,8152.49
595.40,8178.73
595.81,8223.67
596.23,8288.46
596.65,8372.61
597.07,8473.97
597.49,8588.94
597.90,8712.79
598.32,8840.01
598.74,8964.75
599.16,9081.31
599.58,9184.55
599.99,9270.26
600.41,9335.49
600.83,9378.72
601.25,9400.00
601.66,9400.84
602.08,9384.16
602.50,9354.00
602.92,9315.17
603.33,9272.93
603.75,9232.49
604.17,9198.62
604.59,9175.33
605.00,9165.47
605.42,9170.60
605.84,9190.88
606.25,9225.10
606.67,9270.83
607.09,9324.65
607.51,9382.48
607.92,9439.93
608.34,9492.64
608.76,9536.62
609.17,9568.59
609.59,9586.13
610.01,9587.91
610.42,9573.73
610.84,9544.54
611.26,9502.36
611.67,9450.13
612.09,9391.50
612.51,9330.61
612.92,9271.74
613.34,9219.02
613.75,9176.15
614.17,9146.10
614.59,9130.90
615.00,9131.52
615.42,9147.78
615.83,9178.39
616.25,9221.12
616.67,9272.93
617.08,9330.29
617.50,9389.40
617.91,9446.55
618.33,9498.34
618.75,9541.92
619.16,9575.23
619.58,9597.05
619.99,9607.11
620.41,9606.05
620.82,9595.35
621.24,9577.24
621.65,9554.48
622.07,9530.20
622.48,9507.64
622.90,9489.96
623.31,9479.95
623.73,9479.88
624.14,9491.32
624.56,9515.04
624.97,9550.94
625.39,9598.06
625.80,9654.70
626.22,9718.53
626.63,9786.76
627.05,9856.36
627.46,9924.30
627.88,9987.74
628.29,10044.20
628.71,10091.76
629.12,10129.15
629.54,10155.85
629.95,10172.04
630.37,10178.65
630.78,10177.22
631.19,10169.79
631.61,10158.77
632.02,10146.76
632.44,10136.36
632.85,10130.02
633.26,10129.87
633.68,10137.63
634.09,10154.48
634.51,10181.04
634.92,10217.32
635.33,10262.73
635.75,10316.15
636.16,10375.97
636.57,10440.16
636.99,10506.43
637.40,10572.34
637.82,10635.41
638.23,10693.34
638.64,10744.10
639.06,10786.10
639.47,10818.32
639.88,10840.35
640.30,10852.46
640.71,10855.60
641.12,10851.31
641.53,10841.65
641.95,10829.05
642.36,10816.12
642.77,10805.49
643.19,10799.63
643.60,10800.66
644.01,10810.24
644.42,10829.45
644.84,10858.73
645.25,10897.89
645.66,10946.14
646.08,11002.16
646.49,11064.22
646.90,11130.28
647.31,11198.17
647.73,11265.69
648.14,11330.74
648.55,11391.45
648.96,11446.21
649.37,11493.77
649.79,11533.24
650.20,11564.14
650.61,11586.37
651.02,11600.22
651.43,11606.36
651.85,11605.81
652.26,11599.93
652.67,11590.38
653.08,11579.02
653.49,11567.91
653.90,11559.15
654.32,11554.78
654.73,11556.67
655.14,11566.40
655.55,11585.13
655.96,11613.52
656.37,11651.67
656.78,11699.10
657.20,11754.80
657.61,11817.24
658.02,11884.49
658.43,11954.36
658.84,12024.50
659.25,12092.58
659.66,12156.40
660.07,12214.04
660.48,12263.95
660.90,12305.03
661.31,12336.70
661.72,12358.91
662.13,12372.09
662.54,12377.17
662.95,12375.48
663.36,12368.68
663.77,12358.66
664.18,12347.43
664.59,12337.03
665.00,12329.37
665.41,12326.20
665.82,12328.94
666.23,12338.68
666.64,12356.10
667.05,12381.43
667.46,12414.49
667.87,12454.69
668.28,12501.09
668.69,12552.49
669.10,12607.43
669.51,12664.33
669.92,12721.52
670.33,12777.33
670.74,12830.16
671.15,12878.51
671.56,12921.06
671.97,12956.73
672.38,12984.70
672.79,13004.50
673.20,13015.99
673.61,13019.42
674.02,13015.43
674.42,13005.03
674.83,12989.56
675.24,12970.63
675.65,12950.06
676.06,12929.81
676.47,12911.81
676.88,12897.94
677.29,12889.86
677.70,12888.95
678.11,12896.21
678.51,12912.22
678.92,12937.03
679.33,12970.26
679.74,13011.03
680.15,13058.06
680.56,13109.78
680.97,13164.37
681.37,13219.92
681.78,13274.56
682.19,13326.50
682.60,13374.21
683.01,13416.37
683.42,13452.01
683.82,13480.46
684.23,13501.35
684.64,13514.60
685.05,13520.40
685.45,13519.18
685.86,13511.58
686.27,13498.46
686.68,13480.88
687.09,13460.05
687.49,13437.40
687.90,13414.45
688.31,13392.84
688.72,13374.25
689.12,13360.29
689.53,13352.47
689.94,13352.03
690.35,13359.93
690.75,13376.69
691.16,13402.39
691.57,13436.63
691.97,13478.50
692.38,13526.70
692.79,13579.56
693.20,13635.20
693.60,13691.61
694.01,13746.84
694.42,13799.10
694.82,13846.85
695.23,13888.88
695.64,13924.37
696.04,13952.84
696.45,13974.12
696.86,13988.33
697.26,13995.78
697.67,13996.91
698.07,13992.27
698.48,13982.51
698.89,13968.32
699.29,13950.52
699.70,13930.06
700.11,13908.00
700.51,13885.58
700.92,13864.15
701.32,13845.11
701.73,13829.91
702.14,13819.85
702.54,13816.06
702.95,13819.40
703.35,13830.33
703.76,13848.95
704.16,13874.95
704.57,13907.66
704.97,13946.12
705.38,13989.16
705.79,14035.48
706.19,14083.76
706.60,14132.66
707.00,14180.95
707.41,14227.46
707.81,14271.08
708.22,14310.79
708.62,14345.66
709.03,14374.80
709.43,14397.44
709.84,14412.95
710.24,14420.86
710.65,14420.98
711.05,14413.41
711.46,14398.59
711.86,14377.34
712.27,14350.85
712.67,14320.62
713.07,14288.41
713.48,14256.16
713.88,14225.84
714.29,14199.37
714.69,14178.45
715.10,14164.53
715.50,14158.66
715.90,14161.50
716.31,14173.24
716.71,14193.68
717.12,14222.21
717.52,14257.91
717.92,14299.60
718.33,14345.92
718.73,14395.39
719.14,14446.49
719.54,14497.67
719.94,14547.46
720.35,14594.43
720.75,14637.25
721.15,14674.74
721.56,14705.83
721.96,14729.68
722.36,14745.63
722.77,14753.27
723.17,14752.49
723.57,14743.42
723.98,14726.49
724.38,14702.42
724.78,14672.14
725.19,14636.80
725.59,14597.69
725.99,14556.25
726.39,14513.93
726.80,14472.25
727.20,14432.70
727.60,14396.70
728.00,14365.59
728.41,14340.58
728.81,14322.70
729.21,14312.76
729.61,14311.34
730.02,14318.73
730.42,14334.92
730.82,14359.58
731.22,14392.11
731.63,14431.58
732.03,14476.82
732.43,14526.45
