wavelength,counts
188.65,99.85
189.10,99.85
189.56,99.85
190.01,99.85
190.47,99.85
190.92,125.06
191.37,135.55
191.83,147.47
192.28,160.65
192.74,174.90
193.19,189.96
193.64,205.56
194.10,222.07
194.55,239.42
195.01,257.54
195.46,276.34
195.91,295.73
196.37,315.57
196.82,335.72
197.27,356.00
197.73,376.25
198.18,396.26
198.63,415.83
199.09,434.77
199.54,452.88
199.99,469.98
200.45,485.90
200.90,500.53
201.35,513.77
201.81,525.59
202.26,536.00
202.71,545.04
203.17,552.80
203.62,559.38
204.07,564.90
204.53,569.48
204.98,573.21
205.43,576.18
205.89,578.45
206.34,580.07
206.79,581.08
207.25,581.52
207.70,581.41
208.15,580.79
208.60,579.73
209.06,578.27
209.51,576.50
209.96,574.49
210.41,572.33
210.87,570.10
211.32,567.89
211.77,565.78
212.23,563.86
212.68,562.19
213.13,560.86
213.58,559.90
214.04,559.38
214.49,559.31
214.94,559.69
215.39,560.50
215.84,561.69
216.30,563.18
216.75,564.84
217.20,566.53
217.65,568.10
218.11,569.40
218.56,570.27
219.01,570.60
219.46,570.32
219.91,569.40
220.37,567.87
220.82,565.81
221.27,563.34
221.72,560.58
222.17,557.69
222.63,554.80
223.08,552.05
223.53,549.52
223.98,547.30
224.43,545.44
224.88,543.96
225.34,542.88
225.79,542.22
226.24,541.97
226.69,542.12
227.14,542.65
227.59,543.51
228.04,544.63
228.50,545.94
228.95,547.32
229.40,548.67
229.85,549.88
230.30,550.86
230.75,551.55
231.20,551.91
231.66,551.95
232.11,551.68
232.56,551.17
233.01,550.46
233.46,549.62
233.91,548.69
234.36,547.70
234.81,546.70
235.26,545.68
235.71,544.68
236.17,543.70
236.62,542.77
237.07,541.92
237.52,541.18
237.97,540.60
238.42,540.18
238.87,539.95
239.32,539.92
239.77,540.06
240.22,540.36
240.67,540.80
241.12,541.35
241.57,542.00
242.02,542.75
242.47,543.60
242.92,544.57
243.37,545.68
243.82,546.91
244.27,548.27
244.72,549.71
245.18,551.18
245.63,552.62
246.08,553.94
246.53,555.08
246.98,556.00
247.43,556.65
247.88,557.06
248.33,557.25
248.78,557.30
249.23,557.27
249.68,557.26
250.12,557.34
250.57,557.57
251.02,557.97
251.47,558.53
251.92,559.22
252.37,559.99
252.82,560.75
253.27,561.45
253.72,562.02
254.17,562.41
254.62,562.62
255.07,562.64
255.52,562.50
255.97,562.22
256.42,561.84
256.87,561.38
257.32,560.88
257.77,560.33
258.22,559.74
258.66,559.10
259.11,558.40
259.56,557.62
260.01,556.77
260.46,555.86
260.91,554.90
261.36,553.90
261.81,552.89
262.26,551.90
262.71,550.95
263.15,550.05
263.60,549.23
264.05,548.51
264.50,547.90
264.95,547.42
265.40,547.09
265.85,546.93
266.30,546.97
266.74,547.22
267.19,547.71
267.64,548.44
268.09,549.42
268.54,550.62
268.99,552.02
269.43,553.56
269.88,555.18
270.33,556.78
270.78,558.29
271.23,559.62
271.68,560.72
272.12,561.56
272.57,562.14
273.02,562.50
273.47,562.71
273.92,562.85
274.36,563.01
274.81,563.27
275.26,563.67
275.71,564.24
276.16,564.94
276.60,565.72
277.05,566.49
277.50,567.17
277.95,567.64
278.39,567.83
278.84,567.68
279.29,567.18
279.74,566.36
280.19,565.27
280.63,564.00
281.08,562.67
281.53,561.39
281.98,560.26
282.42,559.37
282.87,558.75
283.32,558.42
283.76,558.33
284.21,558.42
284.66,558.62
285.11,558.84
285.55,559.00
286.00,559.05
286.45,558.96
286.89,558.73
287.34,558.39
287.79,558.00
288.23,557.62
288.68,557.32
289.13,557.15
289.58,557.18
290.02,557.42
290.47,557.87
290.92,558.51
291.36,559.29
291.81,560.10
292.26,560.86
292.70,561.45
293.15,561.76
293.60,561.71
294.04,561.25
294.49,560.37
294.93,559.11
295.38,557.57
295.83,555.87
296.27,554.19
296.72,552.67
297.17,551.49
297.61,550.77
298.06,550.60
298.50,551.02
298.95,552.00
299.40,553.49
299.84,555.36
300.29,557.47
300.73,559.67
301.18,561.77
301.63,563.62
302.07,565.08
302.52,566.04
302.96,566.42
303.41,566.19
303.85,565.35
304.30,563.95
304.75,562.05
305.19,559.76
305.64,557.22
306.08,554.57
306.53,551.97
306.97,549.58
307.42,547.55
307.86,546.01
308.31,545.06
308.75,544.77
309.20,545.16
309.65,546.21
310.09,547.84
310.54,549.95
310.98,552.41
311.43,555.05
311.87,557.75
312.32,560.36
312.76,562.78
313.21,564.93
313.65,566.76
314.10,568.23
314.54,569.34
314.99,570.09
315.43,570.49
315.87,570.53
316.32,570.24
316.76,569.66
317.21,568.81
317.65,567.77
318.10,566.63
318.54,565.47
318.99,564.41
319.43,563.56
319.88,563.01
320.32,562.81
320.76,563.00
321.21,563.58
321.65,564.52
322.10,565.78
322.54,567.28
322.99,568.99
323.43,570.87
323.87,572.88
324.32,575.01
324.76,577.25
325.21,579.57
325.65,581.92
326.09,584.24
326.54,586.43
326.98,588.37
327.42,589.93
327.87,591.00
328.31,591.49
328.76,591.37
329.20,590.66
329.64,589.42
330.09,587.78
330.53,585.91
330.97,583.97
331.42,582.12
331.86,580.48
332.30,579.13
332.75,578.08
333.19,577.30
333.63,576.70
334.08,576.19
334.52,575.64
334.96,574.98
335.41,574.12
335.85,573.06
336.29,571.83
336.74,570.48
337.18,569.11
337.62,567.87
338.06,566.86
338.51,566.21
338.95,566.02
339.39,566.37
339.84,567.28
340.28,568.74
340.72,570.70
341.16,573.06
341.61,575.69
342.05,578.43
342.49,581.11
342.93,583.56
343.38,585.65
343.82,587.24
344.26,588.27
344.70,588.69
345.15,588.54
345.59,587.86
346.03,586.74
346.47,585.31
346.92,583.69
347.36,582.03
347.80,580.45
348.24,579.06
348.68,577.96
349.13,577.21
349.57,576.83
350.01,576.83
350.45,577.18
350.89,577.83
351.34,578.71
351.78,579.77
352.22,580.92
352.66,582.09
353.10,583.23
353.54,584.26
353.99,585.15
354.43,585.85
354.87,586.32
355.31,586.54
355.75,586.51
356.19,586.25
356.63,585.79
357.08,585.18
357.52,584.49
357.96,583.81
358.40,583.19
358.84,582.71
359.28,582.41
359.72,582.32
360.16,582.45
360.60,582.78
361.05,583.29
361.49,583.92
361.93,584.65
362.37,585.41
362.81,586.15
363.25,586.83
363.69,587.40
364.13,587.85
364.57,588.14
365.01,588.30
365.45,588.34
365.89,588.32
366.33,588.30
366.78,588.37
367.22,588.62
367.66,589.14
368.10,589.98
368.54,591.19
368.98,592.78
369.42,594.72
369.86,596.94
370.30,599.37
370.74,601.90
371.18,604.41
371.62,606.79
372.06,608.93
372.50,610.74
372.94,612.18
373.38,613.21
373.82,613.85
374.26,614.16
374.70,614.22
375.14,614.17
375.58,614.12
376.02,614.22
376.46,614.59
376.90,615.31
377.34,616.44
377.78,617.99
378.21,619.93
378.65,622.20
379.09,624.73
379.53,627.42
379.97,630.18
380.41,632.95
380.85,635.67
381.29,638.29
381.73,640.81
382.17,643.22
382.61,645.52
383.05,647.74
383.49,649.90
383.93,651.99
384.36,654.04
384.80,656.04
385.24,657.98
385.68,659.84
386.12,661.60
386.56,663.25
387.00,664.75
387.44,666.11
387.87,667.33
388.31,668.45
388.75,669.50
389.19,670.56
389.63,671.69
390.07,672.97
390.51,674.45
390.94,676.18
391.38,678.18
391.82,680.44
392.26,682.92
392.70,685.57
393.14,688.30
393.57,691.01
394.01,693.60
394.45,695.96
394.89,698.01
395.33,699.67
395.76,700.91
396.20,701.72
396.64,702.15
397.08,702.29
397.52,702.24
397.95,702.17
398.39,702.24
398.83,702.60
399.27,703.41
399.70,704.81
400.14,706.91
400.58,709.77
401.02,713.43
401.45,717.89
401.89,723.11
402.33,729.00
402.77,735.45
403.20,742.33
403.64,749.47
404.08,756.71
404.52,763.88
404.95,770.85
405.39,777.50
405.83,783.78
406.26,789.65
406.70,795.14
407.14,800.28
407.58,805.16
408.01,809.85
408.45,814.41
408.89,818.93
409.32,823.45
409.76,828.01
410.20,832.64
410.63,837.36
411.07,842.18
411.51,847.12
411.94,852.16
412.38,857.32
412.82,862.58
413.25,867.95
413.69,873.39
414.12,878.89
414.56,884.41
415.00,889.89
415.43,895.28
415.87,900.52
416.31,905.56
416.74,910.38
417.18,914.97
417.61,919.35
418.05,923.58
418.49,927.75
418.92,931.97
419.36,936.35
419.79,940.99
420.23,946.00
420.67,951.45
421.10,957.38
421.54,963.82
421.97,970.75
422.41,978.14
422.84,985.94
423.28,994.07
423.71,1002.45
424.15,1010.97
424.59,1019.54
425.02,1028.09
425.46,1036.57
425.89,1044.98
426.33,1053.34
426.76,1061.75
427.20,1070.29
427.63,1079.06
428.07,1088.16
428.50,1097.63
428.94,1107.46
429.37,1117.59
429.81,1127.91
430.24,1138.27
430.68,1148.54
431.11,1158.58
431.55,1168.32
431.98,1177.72
432.42,1186.82
432.85,1195.69
433.28,1204.42
433.72,1213.16
434.15,1222.00
434.59,1231.06
435.02,1240.41
435.46,1250.10
435.89,1260.14
436.33,1270.52
436.76,1281.22
437.19,1292.18
437.63,1303.33
438.06,1314.61
438.50,1325.91
438.93,1337.14
439.37,1348.20
439.80,1359.01
440.23,1369.49
440.67,1379.58
441.10,1389.24
441.53,1398.45
441.97,1407.18
442.40,1415.43
442.84,1423.23
443.27,1430.58
443.70,1437.53
444.14,1444.14
444.57,1450.48
445.00,1456.64
445.44,1462.74
445.87,1468.87
446.30,1475.13
446.74,1481.57
447.17,1488.24
447.60,1495.13
448.04,1502.19
448.47,1509.39
448.90,1516.65
449.34,1523.96
449.77,1531.29
450.20,1538.70
450.64,1546.24
451.07,1554.01
451.50,1562.14
451.93,1570.71
452.37,1579.80
452.80,1589.47
453.23,1599.71
453.67,1610.52
454.10,1621.87
454.53,1633.75
454.96,1646.16
455.40,1659.13
455.83,1672.74
456.26,1687.05
456.69,1702.15
457.13,1718.08
457.56,1734.81
457.99,1752.27
458.42,1770.30
458.86,1788.68
459.29,1807.16
459.72,1825.46
460.15,1843.35
460.58,1860.67
461.02,1877.32
461.45,1893.33
461.88,1908.82
462.31,1923.95
462.74,1938.94
463.18,1954.01
463.61,1969.30
464.04,1984.91
464.47,2000.85
464.90,2017.06
465.33,2033.44
465.77,2049.90
466.20,2066.39
466.63,2082.92
467.06,2099.60
467.49,2116.64
467.92,2134.29
468.35,2152.80
468.78,2172.40
469.22,2193.22
469.65,2215.29
470.08,2238.51
470.51,2262.72
470.94,2287.70
471.37,2313.29
471.80,2339.37
472.23,2365.98
472.66,2393.24
473.10,2421.40
473.53,2450.76
473.96,2481.57
474.39,2514.00
474.82,2548.08
475.25,2583.65
475.68,2620.41
476.11,2657.94
476.54,2695.81
476.97,2733.64
477.40,2771.20
477.83,2808.47
478.26,2845.61
478.69,2882.99
479.12,2921.07
479.55,2960.31
479.98,3001.05
480.41,3043.42
480.84,3087.28
481.27,3132.19
481.70,3177.46
482.13,3222.26
482.56,3265.72
482.99,3307.13
483.42,3345.99
483.85,3382.21
484.28,3416.06
484.71,3448.16
485.14,3479.43
485.57,3510.86
486.00,3543.41
486.43,3577.80
486.86,3614.39
487.29,3653.10
487.72,3693.44
488.15,3734.56
488.58,3775.40
489.01,3814.92
489.44,3852.21
489.87,3886.72
490.30,3918.33
490.72,3947.36
491.15,3974.56
491.58,4000.91
492.01,4027.48
492.44,4055.21
492.87,4084.75
493.30,4116.31
493.73,4149.61
494.16,4183.94
494.59,4218.27
495.01,4251.43
495.44,4282.31
495.87,4310.08
496.30,4334.33
496.73,4355.19
497.16,4373.27
497.59,4389.65
498.01,4405.64
498.44,4422.61
498.87,4441.78
499.30,4464.00
499.73,4489.61
500.16,4518.41
500.58,4549.64
501.01,4582.13
501.44,4614.47
501.87,4645.25
502.30,4673.23
502.72,4697.62
503.15,4718.14
503.58,4735.13
504.01,4749.48
504.44,4762.50
504.86,4775.74
505.29,4790.72
505.72,4808.72
506.15,4830.55
506.57,4856.43
507.00,4885.91
507.43,4917.96
507.86,4951.13
508.28,4983.71
508.71,5014.03
509.14,5040.73
509.57,5062.93
509.99,5080.39
510.42,5093.57
510.85,5103.52
511.27,5111.77
511.70,5120.05
512.13,5130.09
512.56,5143.30
512.98,5160.58
513.41,5182.17
513.84,5207.60
514.26,5235.73
514.69,5264.96
515.12,5293.39
515.54,5319.14
515.97,5340.62
516.40,5356.76
516.82,5367.21
517.25,5372.40
517.68,5373.50
518.10,5372.29
518.53,5370.91
518.95,5371.58
519.38,5376.26
519.81,5386.40
520.23,5402.69
520.66,5424.97
521.09,5452.22
521.51,5482.68
521.94,5514.10
522.36,5544.02
522.79,5570.12
523.22,5590.54
523.64,5604.12
524.07,5610.61
524.49,5610.65
524.92,5605.78
525.34,5598.17
525.77,5590.38
526.20,5585.01
526.62,5584.34
527.05,5590.03
527.47,5602.88
527.90,5622.68
528.32,5648.25
528.75,5677.56
529.17,5707.97
529.60,5736.63
530.02,5760.79
530.45,5778.22
530.87,5787.50
531.30,5788.22
531.72,5781.11
532.15,5767.88
532.57,5751.06
533.00,5733.69
533.42,5718.90
533.85,5709.53
534.27,5707.76
534.70,5714.81
535.12,5730.82
535.55,5754.80
535.97,5784.74
536.40,5817.91
536.82,5851.11
537.25,5881.15
537.67,5905.15
538.09,5920.97
538.52,5927.42
538.94,5924.43
539.37,5913.05
539.79,5895.36
540.22,5874.22
540.64,5852.93
541.06,5834.81
541.49,5822.90
541.91,5819.46
542.34,5825.81
542.76,5842.10
543.18,5867.27
543.61,5899.22
544.03,5935.00
544.46,5971.18
544.88,6004.23
545.30,6030.99
545.73,6048.97
546.15,6056.73
546.57,6053.99
547.00,6041.71
547.42,6021.98
547.84,5997.78
548.27,5972.61
548.69,5950.15
549.11,5933.79
549.54,5926.24
549.96,5929.24
550.38,5943.37
550.81,5967.95
551.23,6001.13
551.65,6040.13
552.07,6081.50
552.50,6121.56
552.92,6156.75
553.34,6184.04
553.77,6201.25
554.19,6207.27
554.61,6202.18
555.03,6187.20
555.46,6164.58
555.88,6137.34
556.30,6109.01
556.72,6083.19
557.15,6063.26
557.57,6052.02
557.99,6051.42
558.41,6062.35
558.84,6084.62
559.26,6116.89
559.68,6156.90
560.10,6201.62
560.52,6247.59
560.95,6291.27
561.37,6329.35
561.79,6359.12
562.21,6378.73
562.63,6387.37
563.06,6385.34
563.48,6374.05
563.90,6355.84
564.32,6333.79
564.74,6311.36
565.16,6292.12
565.58,6279.35
566.01,6275.73
566.43,6283.11
566.85,6302.33
567.27,6333.11
567.69,6374.13
568.11,6423.08
568.53,6476.95
568.96,6532.23
569.38,6585.27
569.80,6632.60
570.22,6671.20
570.64,6698.83
571.06,6714.17
571.48,6716.95
571.90,6707.96
572.32,6688.95
572.74,6662.46
573.16,6631.54
573.58,6599.51
574.01,6569.59
574.43,6544.66
574.85,6526.98
575.27,6518.01
575.69,6518.33
576.11,6527.61
576.53,6544.68
576.95,6567.70
577.37,6594.32
577.79,6621.93
578.21,6647.92
578.63,6669.84
579.05,6685.70
579.47,6694.05
579.89,6694.10
580.31,6685.81
580.73,6669.83
581.15,6647.48
581.57,6620.62
581.99,6591.51
582.41,6562.64
582.83,6536.54
583.25,6515.57
583.67,6501.77
584.09,6496.67
584.51,6501.20
584.93,6515.62
585.34,6539.51
585.76,6571.84
586.18,6611.02
586.60,6655.07
587.02,6701.78
587.44,6748.85
587.86,6794.05
588.28,6835.42
588.70,6871.34
589.12,6900.70
589.54,6922.88
589.95,6937.87
590.37,6946.26
590.79,6949.17
591.21,6948.21
591.63,6945.40
592.05,6942.99
592.47,6943.34
592.89,6948.77
593.30,6961.34
593.72,6982.71
594.14,7014.04
594.56,7055.84
594.98,7107.96
595.40,7169.54
595.81,7239.12
596.23,7314.67
596.65,7393.81
597.07,7473.88
597.49,7552.20
597.90,7626.23
598.32,7693.73
598.74,7752.95
599.16,7802.70
599.58,7842.42
599.99,7872.22
600.41,7892.85
600.83,7905.60
601.25,7912.20
601.66,7914.65
602.08,7915.12
602.50,7915.72
602.92,7918.37
603.33,7924.68
603.75,7935.82
604.17,7952.50
604.59,7974.86
605.00,8002.56
605.42,8034.78
605.84,8070.32
606.25,8107.69
606.67,8145.20
607.09,8181.13
607.51,8213.80
607.92,8241.74
608.34,8263.71
608.76,8278.83
609.17,8286.60
609.59,8286.93
610.01,8280.15
610.42,8266.96
610.84,8248.42
611.26,8225.88
611.67,8200.88
612.09,8175.10
612.51,8150.29
612.92,8128.14
613.34,8110.20
613.75,8097.80
614.17,8091.97
614.59,8093.40
615.00,8102.35
615.42,8118.66
615.83,8141.77
616.25,8170.72
616.67,8204.23
617.08,8240.80
617.50,8278.73
617.91,8316.32
618.33,8351.89
618.75,8383.94
619.16,8411.23
619.58,8432.83
619.99,8448.24
620.41,8457.41
620.82,8460.74
621.24,8459.06
621.65,8453.58
622.07,8445.83
622.48,8437.50
622.90,8430.32
623.31,8425.95
623.73,8425.81
624.14,8431.03
624.56,8442.32
624.97,8459.96
625.39,8483.83
625.80,8513.39
626.22,8547.78
626.63,8585.91
627.05,8626.51
627.46,8668.24
627.88,8709.75
628.29,8749.78
628.71,8787.16
629.12,8820.95
629.54,8850.39
629.95,8875.00
630.37,8894.57
630.78,8909.19
631.19,8919.21
631.61,8925.24
632.02,8928.13
632.44,8928.87
632.85,8928.57
633.26,8928.36
633.68,8929.36
634.09,8932.59
634.51,8938.93
634.92,8949.07
635.33,8963.50
635.75,8982.47
636.16,9006.01
636.57,9033.93
636.99,9065.82
637.40,9101.10
637.82,9139.05
638.23,9178.83
638.64,9219.51
639.06,9260.17
639.47,9299.87
639.88,9337.74
640.30,9373.01
640.71,9405.03
641.12,9433.30
641.53,9457.52
641.95,9477.58
642.36,9493.56
642.77,9505.79
643.19,9514.74
643.60,9521.14
644.01,9525.82
644.42,9529.78
644.84,9534.11
645.25,9539.89
645.66,9548.22
646.08,9560.04
646.49,9576.17
646.90,9597.17
647.31,9623.30
647.73,9654.55
648.14,9690.55
648.55,9730.65
648.96,9773.94
649.37,9819.28
649.79,9865.42
650.20,9911.08
650.61,9954.99
651.02,9996.01
651.43,10033.21
651.85,10065.86
652.26,10093.51
652.67,10115.99
653.08,10133.41
653.49,10146.13
653.90,10154.71
654.32,10159.91
654.73,10162.63
655.14,10163.85
655.55,10164.59
655.96,10165.90
656.37,10168.75
656.78,10174.03
657.20,10182.49
657.61,10194.72
658.02,10211.08
658.43,10231.73
658.84,10256.60
659.25,10285.41
659.66,10317.67
660.07,10352.79
660.48,10390.04
660.90,10428.67
661.31,10467.90
661.72,10506.97
662.13,10545.19
662.54,10581.90
662.95,10616.54
663.36,10648.59
663.77,10677.63
664.18,10703.31
664.59,10725.37
665.00,10743.65
665.41,10758.14
665.82,10768.96
666.23,10776.40
666.64,10780.89
667.05,10783.03
667.46,10783.53
667.87,10783.21
668.28,10782.97
668.69,10783.68
669.10,10786.21
669.51,10791.36
669.92,10799.78
670.33,10811.96
670.74,10828.20
671.15,10848.57
671.56,10872.87
671.97,10900.67
672.38,10931.30
672.79,10963.91
673.20,10997.49
673.61,11031.01
674.02,11063.41
674.42,11093.76
674.83,11121.26
675.24,11145.32
675.65,11165.60
676.06,11181.96
676.47,11194.50
676.88,11203.50
677.29,11209.38
677.70,11212.68
678.11,11213.98
678.51,11213.89
678.92,11213.03
679.33,11211.96
679.74,11211.22
680.15,11211.26
680.56,11212.46
680.97,11215.16
681.37,11219.60
681.78,11225.96
682.19,11234.36
682.60,11244.87
683.01,11257.51
683.42,11272.24
683.82,11288.96
684.23,11307.53
684.64,11327.73
685.05,11349.31
685.45,11371.94
685.86,11395.27
686.27,11418.93
686.68,11442.54
687.09,11465.73
687.49,11488.15
687.90,11509.49
688.31,11529.45
688.72,11547.79
689.12,11564.25
689.53,11578.60
689.94,11590.62
690.35,11600.12
690.75,11606.92
691.16,11610.92
691.57,11612.11
691.97,11610.61
692.38,11606.71
692.79,11600.90
693.20,11593.85
693.60,11586.41
694.01,11579.59
694.42,11574.45
694.82,11572.02
695.23,11573.22
695.64,11578.76
696.04,11589.07
696.45,11604.21
696.86,11623.92
697.26,11647.59
697.67,11674.37
698.07,11703.20
698.48,11732.97
698.89,11762.57
699.29,11790.99
699.70,11817.38
700.11,11841.07
700.51,11861.60
700.92,11878.69
701.32,11892.19
701.73,11902.09
702.14,11908.50
702.54,11911.60
702.95,11911.65
703.35,11908.99
703.76,11904.05
704.16,11897.31
704.57,11889.33
704.97,11880.69
705.38,11872.00
705.79,11863.86
706.19,11856.83
706.60,11851.41
707.00,11848.06
707.41,11847.13
707.81,11848.90
708.22,11853.56
708.62,11861.19
709.03,11871.77
709.43,11885.15
709.84,11901.06
710.24,11919.10
710.65,11938.76
711.05,11959.44
711.46,11980.48
711.86,12001.22
712.27,12021.04
712.67,12039.41
713.07,12055.90
713.48,12070.21
713.88,12082.18
714.29,12091.74
714.69,12098.92
715.10,12103.80
715.50,12106.47
715.90,12107.04
716.31,12105.63
716.71,12102.34
717.12,12097.33
717.52,12090.81
717.92,12083.08
718.33,12074.54
718.73,12065.70
719.14,12057.14
719.54,12049.51
719.94,12043.44
720.35,12039.49
720.75,12038.08
721.15,12039.42
721.56,12043.54
721.96,12050.22
722.36,12059.05
722.77,12069.48
723.17,12080.91
723.57,12092.73
723.98,12104.43
724.38,12115.62
724.78,12126.06
725.19,12135.65
725.59,12144.40
725.99,12152.39
726.39,12159.70
726.80,12166.36
727.20,12172.35
727.60,12177.54
728.00,12181.72
728.41,12184.63
728.81,12185.99
729.21,12185.53
729.61,12183.05
730.02,12178.42
730.42,12171.61
730.82,12162.66
731.22,12151.71
731.63,12138.97
732.03,12124.71
732.43,12109.24
732.83,12092.93
733.23,12076.18
733.64,12059.42
734.04,12043.09
