wavelength,counts
188.65,43.54
189.10,43.54
189.56,43.54
190.01,43.54
190.47,43.54
190.92,77.16
191.37,91.41
191.83,107.70
192.28,125.76
192.74,145.22
193.19,165.60
193.64,186.36
194.10,207.77
194.55,229.57
195.01,251.52
195.46,273.47
195.91,295.29
196.37,316.91
196.82,338.30
197.27,359.47
197.73,380.42
198.18,401.15
198.63,421.63
199.09,441.78
199.54,461.46
199.99,480.48
200.45,498.62
200.90,515.62
201.35,531.26
201.81,545.33
202.26,557.67
202.71,568.22
203.17,576.95
203.62,583.94
204.07,589.31
204.53,593.22
204.98,595.87
205.43,597.45
205.89,598.16
206.34,598.16
206.79,597.59
207.25,596.57
207.70,595.19
208.15,593.53
208.60,591.66
209.06,589.64
209.51,587.52
209.96,585.34
210.41,583.16
210.87,581.00
211.32,578.88
211.77,576.82
212.23,574.82
212.68,572.86
213.13,570.95
213.58,569.07
214.04,567.21
214.49,565.38
214.94,563.57
215.39,561.82
215.84,560.13
216.30,558.52
216.75,557.03
217.20,555.65
217.65,554.41
218.11,553.28
218.56,552.28
219.01,551.41
219.46,550.66
219.91,550.05
220.37,549.62
220.82,549.40
221.27,549.43
221.72,549.74
222.17,550.34
222.63,551.22
223.08,552.36
223.53,553.69
223.98,555.13
224.43,556.61
224.88,558.02
225.34,559.31
225.79,560.40
226.24,561.27
226.69,561.90
227.14,562.31
227.59,562.51
228.04,562.57
228.50,562.51
228.95,562.42
229.40,562.34
229.85,562.35
230.30,562.52
230.75,562.89
231.20,563.50
231.66,564.37
232.11,565.48
232.56,566.79
233.01,568.22
233.46,569.68
233.91,571.04
234.36,572.21
234.81,573.07
235.26,573.55
235.71,573.61
236.17,573.25
236.62,572.50
237.07,571.45
237.52,570.18
237.97,568.84
238.42,567.55
238.87,566.47
239.32,565.72
239.77,565.42
240.22,565.65
240.67,566.47
241.12,567.88
241.57,569.83
242.02,572.23
242.47,574.93
242.92,577.77
243.37,580.57
243.82,583.15
244.27,585.36
244.72,587.07
245.18,588.21
245.63,588.76
246.08,588.74
246.53,588.20
246.98,587.22
247.43,585.87
247.88,584.26
248.33,582.45
248.78,580.53
249.23,578.57
249.68,576.62
250.12,574.77
250.57,573.08
251.02,571.62
251.47,570.44
251.92,569.59
252.37,569.07
252.82,568.90
253.27,569.03
253.72,569.39
254.17,569.93
254.62,570.53
255.07,571.10
255.52,571.55
255.97,571.82
256.42,571.85
256.87,571.62
257.32,571.15
257.77,570.49
258.22,569.71
258.66,568.91
259.11,568.18
259.56,567.62
260.01,567.34
260.46,567.40
260.91,567.86
261.36,568.75
261.81,570.08
262.26,571.82
262.71,573.92
263.15,576.31
263.60,578.85
264.05,581.44
264.50,583.93
264.95,586.16
265.40,588.02
265.85,589.39
266.30,590.21
266.74,590.47
267.19,590.20
267.64,589.48
268.09,588.45
268.54,587.25
268.99,586.02
269.43,584.90
269.88,584.01
270.33,583.41
270.78,583.15
271.23,583.22
271.68,583.58
272.12,584.17
272.57,584.90
273.02,585.70
273.47,586.49
273.92,587.22
274.36,587.85
274.81,588.36
275.26,588.75
275.71,589.05
276.16,589.27
276.60,589.44
277.05,589.60
277.50,589.75
277.95,589.91
278.39,590.10
278.84,590.31
279.29,590.54
279.74,590.79
280.19,591.07
280.63,591.38
281.08,591.72
281.53,592.10
281.98,592.55
282.42,593.09
282.87,593.71
283.32,594.45
283.76,595.31
284.21,596.26
284.66,597.29
285.11,598.34
285.55,599.35
286.00,600.25
286.45,600.97
286.89,601.44
287.34,601.62
287.79,601.50
288.23,601.08
288.68,600.41
289.13,599.57
289.58,598.63
290.02,597.69
290.47,596.82
290.92,596.10
291.36,595.56
291.81,595.22
292.26,595.09
292.70,595.14
293.15,595.34
293.60,595.66
294.04,596.06
294.49,596.50
294.93,596.95
295.38,597.39
295.83,597.77
296.27,598.10
296.72,598.35
297.17,598.53
297.61,598.62
298.06,598.64
298.50,598.58
298.95,598.47
299.40,598.31
299.84,598.10
300.29,597.85
300.73,597.55
301.18,597.21
301.63,596.83
302.07,596.44
302.52,596.04
302.96,595.67
303.41,595.37
303.85,595.19
304.30,595.15
304.75,595.29
305.19,595.60
305.64,596.07
306.08,596.63
306.53,597.23
306.97,597.75
307.42,598.10
307.86,598.18
308.31,597.91
308.75,597.25
309.20,596.21
309.65,594.84
310.09,593.22
310.54,591.50
310.98,589.84
311.43,588.38
311.87,587.29
312.32,586.69
312.76,586.64
313.21,587.19
313.65,588.33
314.10,589.98
314.54,592.05
314.99,594.41
315.43,596.91
315.87,599.39
316.32,601.72
316.76,603.74
317.21,605.35
317.65,606.47
318.10,607.06
318.54,607.11
318.99,606.67
319.43,605.81
319.88,604.65
320.32,603.32
320.76,601.96
321.21,600.69
321.65,599.63
322.10,598.83
322.54,598.35
322.99,598.17
323.43,598.25
323.87,598.53
324.32,598.93
324.76,599.38
325.21,599.81
325.65,600.17
326.09,600.42
326.54,600.55
326.98,600.55
327.42,600.45
327.87,600.24
328.31,599.97
328.76,599.65
329.20,599.31
329.64,598.99
330.09,598.71
330.53,598.50
330.97,598.41
331.42,598.45
331.86,598.65
332.30,599.03
332.75,599.57
333.19,600.26
333.63,601.07
334.08,601.95
334.52,602.84
334.96,603.67
335.41,604.35
335.85,604.82
336.29,604.99
336.74,604.80
337.18,604.21
337.62,603.20
338.06,601.78
338.51,600.02
338.95,598.01
339.39,595.88
339.84,593.81
340.28,591.99
340.72,590.59
341.16,589.81
341.61,589.78
342.05,590.58
342.49,592.22
342.93,594.65
343.38,597.73
343.82,601.27
344.26,605.03
344.70,608.75
345.15,612.18
345.59,615.14
346.03,617.46
346.47,619.09
346.92,620.03
347.36,620.37
347.80,620.25
348.24,619.82
348.68,619.24
349.13,618.66
349.57,618.16
350.01,617.78
350.45,617.52
350.89,617.31
351.34,617.08
351.78,616.78
352.22,616.36
352.66,615.79
353.10,615.13
353.54,614.42
353.99,613.76
354.43,613.24
354.87,612.93
355.31,612.89
355.75,613.12
356.19,613.60
356.63,614.27
357.08,615.05
357.52,615.88
357.96,616.69
358.40,617.45
358.84,618.15
359.28,618.79
359.72,619.40
360.16,619.97
360.60,620.52
361.05,621.02
361.49,621.43
361.93,621.72
362.37,621.82
362.81,621.71
363.25,621.37
363.69,620.82
364.13,620.11
364.57,619.34
365.01,618.60
365.45,618.01
365.89,617.68
366.33,617.69
366.78,618.11
367.22,618.95
367.66,620.21
368.10,621.84
368.54,623.77
368.98,625.93
369.42,628.23
369.86,630.61
370.30,632.98
370.74,635.29
371.18,637.50
371.62,639.54
372.06,641.39
372.50,642.99
372.94,644.32
373.38,645.34
373.82,646.03
374.26,646.41
374.70,646.48
375.14,646.31
375.58,645.97
376.02,645.53
376.46,645.12
376.90,644.82
377.34,644.72
377.78,644.89
378.21,645.38
378.65,646.19
379.09,647.30
379.53,648.67
379.97,650.24
380.41,651.94
380.85,653.70
381.29,655.48
381.73,657.24
382.17,658.97
382.61,660.71
383.05,662.46
383.49,664.30
383.93,666.27
384.36,668.43
384.80,670.80
385.24,673.43
385.68,676.32
386.12,679.47
386.56,682.87
387.00,686.50
387.44,690.35
387.87,694.40
388.31,698.64
388.75,703.06
389.19,707.64
389.63,712.35
390.07,717.15
390.51,721.99
390.94,726.81
391.38,731.54
391.82,736.10
392.26,740.44
392.70,744.53
393.14,748.36
393.57,751.94
394.01,755.32
394.45,758.55
394.89,761.68
395.33,764.75
395.76,767.79
396.20,770.78
396.64,773.71
397.08,776.52
397.52,779.17
397.95,781.61
398.39,783.83
398.83,785.85
399.27,787.72
399.70,789.52
400.14,791.37
400.58,793.40
401.02,795.75
401.45,798.52
401.89,801.81
402.33,805.69
402.77,810.18
403.20,815.26
403.64,820.92
404.08,827.08
404.52,833.68
404.95,840.62
405.39,847.82
405.83,855.19
406.26,862.63
406.70,870.06
407.14,877.41
407.58,884.62
408.01,891.64
408.45,898.48
408.89,905.12
409.32,911.63
409.76,918.05
410.20,924.46
410.63,930.94
411.07,937.58
411.51,944.45
411.94,951.57
412.38,958.98
412.82,966.64
413.25,974.53
413.69,982.58
414.12,990.72
414.56,998.88
415.00,1007.03
415.43,1015.11
415.87,1023.10
416.31,1030.97
416.74,1038.73
417.18,1046.36
417.61,1053.89
418.05,1061.33
418.49,1068.75
418.92,1076.23
419.36,1083.92
419.79,1091.97
420.23,1100.58
420.67,1109.90
421.10,1120.08
421.54,1131.19
421.97,1143.20
422.41,1156.01
422.84,1169.39
423.28,1183.08
423.71,1196.75
424.15,1210.08
424.59,1222.78
425.02,1234.65
425.46,1245.56
425.89,1255.51
426.33,1264.57
426.76,1272.92
427.20,1280.79
427.63,1288.46
428.07,1296.19
428.50,1304.26
428.94,1312.86
429.37,1322.16
429.81,1332.24
430.24,1343.09
430.68,1354.65
431.11,1366.80
431.55,1379.35
431.98,1392.12
432.42,1404.91
432.85,1417.56
433.28,1429.94
433.72,1441.98
434.15,1453.69
434.59,1465.12
435.02,1476.36
435.46,1487.53
435.89,1498.74
436.33,1510.11
436.76,1521.68
437.19,1533.47
437.63,1545.48
438.06,1557.63
438.50,1569.86
438.93,1582.06
439.37,1594.13
439.80,1605.98
440.23,1617.52
440.67,1628.70
441.10,1639.45
441.53,1649.77
441.97,1659.66
442.40,1669.17
442.84,1678.38
443.27,1687.40
443.70,1696.36
444.14,1705.40
444.57,1714.65
445.00,1724.20
445.44,1734.10
445.87,1744.32
446.30,1754.82
446.74,1765.46
447.17,1776.12
447.60,1786.65
448.04,1796.93
448.47,1806.87
448.90,1816.45
449.34,1825.67
449.77,1834.60
450.20,1843.33
450.64,1851.96
451.07,1860.60
451.50,1869.37
451.93,1878.39
452.37,1887.79
452.80,1897.73
453.23,1908.40
453.67,1920.01
454.10,1932.77
454.53,1946.90
454.96,1962.55
455.40,1979.78
455.83,1998.53
456.26,2018.63
456.69,2039.75
457.13,2061.44
457.56,2083.23
457.99,2104.63
458.42,2125.22
458.86,2144.71
459.29,2162.95
459.72,2179.99
460.15,2196.02
460.58,2211.32
461.02,2226.23
461.45,2241.10
461.88,2256.18
462.31,2271.67
462.74,2287.67
463.18,2304.21
463.61,2321.32
464.04,2339.06
464.47,2357.56
464.90,2377.02
465.33,2397.73
465.77,2420.00
466.20,2444.12
466.63,2470.25
467.06,2498.44
467.49,2528.50
467.92,2560.06
468.35,2592.60
468.78,2625.49
469.22,2658.12
469.65,2689.99
470.08,2720.79
470.51,2750.44
470.94,2779.14
471.37,2807.30
471.80,2835.47
472.23,2864.26
472.66,2894.19
473.10,2925.63
473.53,2958.74
473.96,2993.48
474.39,3029.61
474.82,3066.81
475.25,3104.80
475.68,3143.43
476.11,3182.74
476.54,3223.06
476.97,3264.93
477.40,3309.07
477.83,3356.22
478.26,3407.04
478.69,3461.91
479.12,3520.85
479.55,3583.49
479.98,3649.02
480.41,3716.34
480.84,3784.14
481.27,3851.12
481.70,3916.15
482.13,3978.41
482.56,4037.50
482.99,4093.44
483.42,4146.61
483.85,4197.59
484.28,4247.05
484.71,4295.49
485.14,4343.12
485.57,4389.80
486.00,4434.96
486.43,4477.75
486.86,4517.18
487.29,4552.33
487.72,4582.57
488.15,4607.81
488.58,4628.53
489.01,4645.88
489.44,4661.56
489.87,4677.63
490.30,4696.28
490.72,4719.50
491.15,4748.81
491.58,4785.10
492.01,4828.44
492.44,4878.11
492.87,4932.72
493.30,4990.44
493.73,5049.24
494.16,5107.22
494.59,5162.89
495.01,5215.38
495.44,5264.49
495.87,5310.72
496.30,5355.11
496.73,5398.96
497.16,5443.60
497.59,5490.04
498.01,5538.77
498.44,5589.55
498.87,5641.40
499.30,5692.70
499.73,5741.42
500.16,5785.39
500.58,5822.71
501.01,5852.01
501.44,5872.77
501.87,5885.40
502.30,5891.27
502.72,5892.52
503.15,5891.80
503.58,5891.90
504.01,5895.37
504.44,5904.14
504.86,5919.29
505.29,5940.90
505.72,5968.11
506.15,5999.22
506.57,6032.03
507.00,6064.15
507.43,6093.43
507.86,6118.25
508.28,6137.83
508.71,6152.33
509.14,6162.90
509.57,6171.50
509.99,6180.67
510.42,6193.19
510.85,6211.69
511.27,6238.31
511.70,6274.35
512.13,6320.14
512.56,6374.92
512.98,6436.91
513.41,6503.55
513.84,6571.77
514.26,6638.39
514.69,6700.45
515.12,6755.60
515.54,6802.32
515.97,6840.06
516.40,6869.26
516.82,6891.23
517.25,6907.87
517.68,6921.37
518.10,6933.88
518.53,6947.13
518.95,6962.22
519.38,6979.45
519.81,6998.28
520.23,7017.44
520.66,7035.17
521.09,7049.49
521.51,7058.56
521.94,7060.98
522.36,7056.08
522.79,7044.02
523.22,7025.87
523.64,7003.51
524.07,6979.43
524.49,6956.42
524.92,6937.30
525.34,6924.57
525.77,6920.14
526.20,6925.12
526.62,6939.73
527.05,6963.31
527.47,6994.35
527.90,7030.75
528.32,7070.04
528.75,7109.60
529.17,7147.05
529.60,7180.40
530.02,7208.35
530.45,7230.41
530.87,7246.91
531.30,7259.03
531.72,7268.66
532.15,7278.13
532.57,7290.01
533.00,7306.73
533.42,7330.31
533.85,7362.04
534.27,7402.31
534.70,7450.50
535.12,7504.96
535.55,7563.20
535.97,7622.10
536.40,7678.26
536.82,7728.36
537.25,7769.58
537.67,7799.86
538.09,7818.19
538.52,7824.68
538.94,7820.57
539.37,7808.03
539.79,7789.91
540.22,7769.36
540.64,7749.47
541.06,7732.88
541.49,7721.45
541.91,7716.10
542.34,7716.68
542.76,7722.07
543.18,7730.28
543.61,7738.80
544.03,7744.89
544.46,7745.94
544.88,7739.82
545.30,7725.18
545.73,7701.57
546.15,7669.59
546.57,7630.80
547.00,7587.62
547.42,7543.06
547.84,7500.44
548.27,7463.10
548.69,7434.04
549.11,7415.64
549.54,7409.44
549.96,7416.02
550.38,7434.88
550.81,7464.56
551.23,7502.71
551.65,7546.33
552.07,7592.08
552.50,7636.53
552.92,7676.56
553.34,7709.62
553.77,7734.02
554.19,7749.07
554.61,7755.22
555.03,7753.98
555.46,7747.79
555.88,7739.79
556.30,7733.50
556.72,7732.44
557.15,7739.77
557.57,7757.97
557.99,7788.54
558.41,7831.85
558.84,7887.08
559.26,7952.28
559.68,8024.50
560.10,8100.13
560.52,8175.15
560.95,8245.51
561.37,8307.51
561.79,8358.12
562.21,8395.24
562.63,8417.88
563.06,8426.29
563.48,8421.89
563.90,8407.15
564.32,8385.37
564.74,8360.35
565.16,8336.03
565.58,8316.06
566.01,8303.47
566.43,8300.34
566.85,8307.57
567.27,8324.78
567.69,8350.36
568.11,8381.58
568.53,8414.94
568.96,8446.44
569.38,8472.05
569.80,8488.06
570.22,8491.47
570.64,8480.24
571.06,8453.52
571.48,8411.68
571.90,8356.28
572.32,8289.91
572.74,8215.99
573.16,8138.44
573.58,8061.36
574.01,7988.76
574.43,7924.20
574.85,7870.61
575.27,7830.06
575.69,7803.70
576.11,7791.69
576.53,7793.27
576.95,7806.82
577.37,7830.02
577.79,7860.05
578.21,7893.74
578.63,7927.88
579.05,7959.38
579.47,7985.53
579.89,8004.18
580.31,8013.95
580.73,8014.33
581.15,8005.75
581.57,7989.58
581.99,7968.03
582.41,7944.03
582.83,7920.97
583.25,7902.45
583.67,7891.98
584.09,7892.70
584.51,7907.07
584.93,7936.72
585.34,7982.27
585.76,8043.27
586.18,8118.23
586.60,8204.78
587.02,8299.77
587.44,8399.60
587.86,8500.42
588.28,8598.49
588.70,8690.40
589.12,8773.36
589.54,8845.40
589.95,8905.48
590.37,8953.58
590.79,8990.69
591.21,9018.65
591.63,9040.06
592.05,9057.96
592.47,9075.65
592.89,9096.32
593.30,9122.84
593.72,9157.48
594.14,9201.73
594.56,9256.17
594.98,9320.43
595.40,9393.20
595.81,9472.32
596.23,9554.95
596.65,9637.78
597.07,9717.22
597.49,9789.75
597.90,9852.10
598.32,9901.54
598.74,9936.08
599.16,9954.62
599.58,9957.06
599.99,9944.31
600.41,9918.21
600.83,9881.40
601.25,9837.08
601.66,9788.80
602.08,9740.13
602.50,9694.40
602.92,9654.49
603.33,9622.61
603.75,9600.16
604.17,9587.75
604.59,9585.16
605.00,9591.46
605.42,9605.15
605.84,9624.30
606.25,9646.76
606.67,9670.30
607.09,9692.78
607.51,9712.25
607.92,9727.08
608.34,9735.98
608.76,9738.08
609.17,9732.92
609.59,9720.47
610.01,9701.09
610.42,9675.56
610.84,9645.04
611.26,9611.01
611.67,9575.28
612.09,9539.86
612.51,9506.94
612.92,9478.73
613.34,9457.37
613.75,9444.76
614.17,9442.50
614.59,9451.67
615.00,9472.85
615.42,9505.95
615.83,9550.28
616.25,9604.56
616.67,9667.01
617.08,9735.44
617.50,9807.44
617.91,9880.53
618.33,9952.32
618.75,10020.66
619.16,10083.78
619.58,10140.38
619.99,10189.68
620.41,10231.45
620.82,10265.99
621.24,10294.10
621.65,10316.99
622.07,10336.20
622.48,10353.48
622.90,10370.67
623.31,10389.61
623.73,10411.97
624.14,10439.19
624.56,10472.37
624.97,10512.20
625.39,10558.92
625.80,10612.32
626.22,10671.74
626.63,10736.11
627.05,10804.04
627.46,10873.88
627.88,10943.82
628.29,11012.04
628.71,11076.75
629.12,11136.34
629.54,11189.43
629.95,11234.96
630.37,11272.18
630.78,11300.75
631.19,11320.66
631.61,11332.30
632.02,11336.38
632.44,11333.92
632.85,11326.21
633.26,11314.78
633.68,11301.27
634.09,11287.43
634.51,11274.95
634.92,11265.41
635.33,11260.16
635.75,11260.22
636.16,11266.23
636.57,11278.37
636.99,11296.38
637.40,11319.60
637.82,11347.01
638.23,11377.30
638.64,11409.03
639.06,11440.70
639.47,11470.89
639.88,11498.32
640.30,11521.95
640.71,11541.04
641.12,11555.16
641.53,11564.20
641.95,11568.39
642.36,11568.25
642.77,11564.55
643.19,11558.26
643.60,11550.50
644.01,11542.46
644.42,11535.37
644.84,11530.39
645.25,11528.59
645.66,11530.91
646.08,11538.08
646.49,11550.65
646.90,11568.94
647.31,11593.04
647.73,11622.85
648.14,11658.04
648.55,11698.12
648.96,11742.47
649.37,11790.32
649.79,11840.82
650.20,11893.11
650.61,11946.27
651.02,11999.42
651.43,12051.73
651.85,12102.44
652.26,12150.88
652.67,12196.52
653.08,12238.93
653.49,12277.88
653.90,12313.23
654.32,12345.07
654.73,12373.61
655.14,12399.22
655.55,12422.44
655.96,12443.91
656.37,12464.41
656.78,12484.76
657.20,12505.86
657.61,12528.59
658.02,12553.81
658.43,12582.32
658.84,12614.79
659.25,12651.76
659.66,12693.59
660.07,12740.46
660.48,12792.33
660.90,12848.95
661.31,12909.84
661.72,12974.35
662.13,13041.64
662.54,13110.70
662.95,13180.45
663.36,13249.71
663.77,13317.28
664.18,13382.00
664.59,13442.76
665.00,13498.59
665.41,13548.67
665.82,13592.41
666.23,13629.46
666.64,13659.79
667.05,13683.64
667.46,13701.61
667.87,13714.56
668.28,13723.65
668.69,13730.20
669.10,13735.69
669.51,13741.59
669.92,13749.32
670.33,13760.15
670.74,13775.10
671.15,13794.93
671.56,13820.05
671.97,13850.59
672.38,13886.32
672.79,13926.79
673.20,13971.27
673.61,14018.88
674.02,14068.58
674.42,14119.22
674.83,14169.62
675.24,14218.53
675.65,14264.77
676.06,14307.20
676.47,14344.76
676.88,14376.56
677.29,14401.92
677.70,14420.36
678.11,14431.66
678.51,14435.90
678.92,14433.40
679.33,14424.75
679.74,14410.74
680.15,14392.34
680.56,14370.65
680.97,14346.85
681.37,14322.15
681.78,14297.74
682.19,14274.79
682.60,14254.39
683.01,14237.52
683.42,14225.01
683.82,14217.51
684.23,14215.47
684.64,14219.11
685.05,14228.36
685.45,14242.95
685.86,14262.35
686.27,14285.83
686.68,14312.54
687.09,14341.50
687.49,14371.69
687.90,14402.09
688.31,14431.66
688.72,14459.44
689.12,14484.52
689.53,14506.05
689.94,14523.34
690.35,14535.80
690.75,14543.06
691.16,14544.98
691.57,14541.65
691.97,14533.44
692.38,14520.97
692.79,14505.07
693.20,14486.73
693.60,14467.00
694.01,14446.98
694.42,14427.68
694.82,14410.00
695.23,14394.74
695.64,14382.51
696.04,14373.79
696.45,14368.95
696.86,14368.21
697.26,14371.69
697.67,14379.40
698.07,14391.24
698.48,14406.99
698.89,14426.28
699.29,14448.67
699.70,14473.58
700.11,14500.36
700.51,14528.34
700.92,14556.83
701.32,14585.20
701.73,14612.91
702.14,14639.49
702.54,14664.59
702.95,14687.97
703.35,14709.48
703.76,14729.05
704.16,14746.65
704.57,14762.28
704.97,14775.98
705.38,14787.79
705.79,14797.76
706.19,14805.98
706.60,14812.56
707.00,14817.65
707.41,14821.49
707.81,14824.36
708.22,14826.64
708.62,14828.75
709.03,14831.23
709.43,14834.64
709.84,14839.63
710.24,14846.85
710.65,14856.99
711.05,14870.66
711.46,14888.42
711.86,14910.69
712.27,14937.71
712.67,14969.49
713.07,15005.76
713.48,15046.04
713.88,15089.55
714.29,15135.34
714.69,15182.34
715.10,15229.39
715.50,15275.39
715.90,15319.32
716.31,15360.34
716.71,15397.78
717.12,15431.18
717.52,15460.25
717.92,15484.88
718.33,15505.05
718.73,15520.85
719.14,15532.44
719.54,15540.03
719.94,15543.90
720.35,15544.39
720.75,15541.96
721.15,15537.19
721.56,15530.75
721.96,15523.49
722.36,15516.32
722.77,15510.23
723.17,15506.25
723.57,15505.33
723.98,15508.33
724.38,15515.94
724.78,15528.63
725.19,15546.62
725.59,15569.86
725.99,15598.02
726.39,15630.55
726.80,15666.67
727.20,15705.44
727.60,15745.85
728.00,15786.82
728.41,15827.29
728.81,15866.28
729.21,15902.90
729.61,15936.39
730.02,15966.12
730.42,15991.61
730.82,16012.47
731.22,16028.40
731.63,16039.16
