wavelength,counts
188.65,33.30
189.10,33.30
189.56,33.30
190.01,33.30
190.47,33.30
190.92,68.05
191.37,82.15
191.83,97.86
192.28,114.82
192.74,132.65
193.19,150.88
193.64,169.06
194.10,187.67
194.55,206.64
195.01,225.93
195.46,245.54
195.91,265.45
196.37,285.65
196.82,306.09
197.27,326.66
197.73,347.22
198.18,367.57
198.63,387.47
199.09,406.67
199.54,424.88
199.99,441.86
200.45,457.41
200.90,471.38
201.35,483.71
201.81,494.41
202.26,503.58
202.71,511.36
203.17,517.94
203.62,523.54
204.07,528.35
204.53,532.57
204.98,536.34
205.43,539.79
205.89,542.96
206.34,545.91
206.79,548.62
207.25,551.07
207.70,553.24
208.15,555.10
208.60,556.60
209.06,557.75
209.51,558.52
209.96,558.92
210.41,558.95
210.87,558.61
211.32,557.92
211.77,556.86
212.23,555.44
212.68,553.68
213.13,551.58
213.58,549.20
214.04,546.59
214.49,543.84
214.94,541.04
215.39,538.31
215.84,535.76
216.30,533.50
216.75,531.61
217.20,530.16
217.65,529.17
218.11,528.64
218.56,528.56
219.01,528.89
219.46,529.58
219.91,530.60
220.37,531.90
220.82,533.43
221.27,535.15
221.72,537.00
222.17,538.92
222.63,540.84
223.08,542.67
223.53,544.33
223.98,545.73
224.43,546.82
224.88,547.53
225.34,547.85
225.79,547.78
226.24,547.34
226.69,546.58
227.14,545.55
227.59,544.30
228.04,542.85
228.50,541.26
228.95,539.54
229.40,537.71
229.85,535.80
230.30,533.86
230.75,531.94
231.20,530.14
231.66,528.56
232.11,527.29
232.56,526.43
233.01,526.06
233.46,526.22
233.91,526.91
234.36,528.06
234.81,529.58
235.26,531.34
235.71,533.17
236.17,534.92
236.62,536.44
237.07,537.59
237.52,538.30
237.97,538.53
238.42,538.29
238.87,537.65
239.32,536.69
239.77,535.54
240.22,534.33
240.67,533.17
241.12,532.16
241.57,531.34
242.02,530.74
242.47,530.35
242.92,530.13
243.37,530.01
243.82,529.95
244.27,529.90
244.72,529.85
245.18,529.82
245.63,529.84
246.08,529.99
246.53,530.35
246.98,530.99
247.43,531.96
247.88,533.28
248.33,534.92
248.78,536.78
249.23,538.75
249.68,540.65
250.12,542.31
250.57,543.56
251.02,544.25
251.47,544.29
251.92,543.66
252.37,542.40
252.82,540.62
253.27,538.46
253.72,536.13
254.17,533.81
254.62,531.69
255.07,529.90
255.52,528.56
255.97,527.71
256.42,527.34
256.87,527.40
257.32,527.84
257.77,528.55
258.22,529.45
258.66,530.47
259.11,531.53
259.56,532.58
260.01,533.58
260.46,534.52
260.91,535.37
261.36,536.13
261.81,536.79
262.26,537.37
262.71,537.88
263.15,538.35
263.60,538.82
264.05,539.33
264.50,539.93
264.95,540.65
265.40,541.53
265.85,542.58
266.30,543.81
266.74,545.20
267.19,546.70
267.64,548.25
268.09,549.78
268.54,551.22
268.99,552.49
269.43,553.53
269.88,554.31
270.33,554.81
270.78,555.04
271.23,555.04
271.68,554.85
272.12,554.53
272.57,554.13
273.02,553.69
273.47,553.23
273.92,552.74
274.36,552.18
274.81,551.50
275.26,550.66
275.71,549.58
276.16,548.22
276.60,546.58
277.05,544.64
277.50,542.45
277.95,540.06
278.39,537.57
278.84,535.06
279.29,532.64
279.74,530.42
280.19,528.48
280.63,526.92
281.08,525.79
281.53,525.12
281.98,524.93
282.42,525.17
282.87,525.81
283.32,526.78
283.76,528.00
284.21,529.39
284.66,530.88
285.11,532.42
285.55,533.96
286.00,535.48
286.45,536.95
286.89,538.34
287.34,539.63
287.79,540.78
288.23,541.75
288.68,542.48
289.13,542.96
289.58,543.16
290.02,543.10
290.47,542.81
290.92,542.33
291.36,541.75
291.81,541.14
292.26,540.55
292.70,540.03
293.15,539.62
293.60,539.31
294.04,539.09
294.49,538.91
294.93,538.72
295.38,538.49
295.83,538.17
296.27,537.73
296.72,537.19
297.17,536.56
297.61,535.88
298.06,535.22
298.50,534.65
298.95,534.25
299.40,534.07
299.84,534.19
300.29,534.63
300.73,535.40
301.18,536.50
301.63,537.88
302.07,539.48
302.52,541.21
302.96,542.97
303.41,544.66
303.85,546.16
304.30,547.39
304.75,548.28
305.19,548.81
305.64,548.97
306.08,548.83
306.53,548.45
306.97,547.96
307.42,547.48
307.86,547.12
308.31,546.99
308.75,547.14
309.20,547.60
309.65,548.34
310.09,549.29
310.54,550.35
310.98,551.40
311.43,552.32
311.87,553.01
312.32,553.39
312.76,553.41
313.21,553.08
313.65,552.43
314.10,551.54
314.54,550.50
314.99,549.42
315.43,548.42
315.87,547.61
316.32,547.08
316.76,546.90
317.21,547.11
317.65,547.72
318.10,548.73
318.54,550.08
318.99,551.69
319.43,553.46
319.88,555.28
320.32,556.99
320.76,558.49
321.21,559.63
321.65,560.34
322.10,560.54
322.54,560.22
322.99,559.40
323.43,558.13
323.87,556.54
324.32,554.74
324.76,552.90
325.21,551.18
325.65,549.74
326.09,548.71
326.54,548.21
326.98,548.32
327.42,549.08
327.87,550.50
328.31,552.52
328.76,555.09
329.20,558.08
329.64,561.38
330.09,564.83
330.53,568.30
330.97,571.64
331.42,574.74
331.86,577.50
332.30,579.85
332.75,581.73
333.19,583.11
333.63,584.00
334.08,584.38
334.52,584.26
334.96,583.66
335.41,582.58
335.85,581.07
336.29,579.15
336.74,576.89
337.18,574.38
337.62,571.71
338.06,569.02
338.51,566.41
338.95,564.01
339.39,561.91
339.84,560.18
340.28,558.85
340.72,557.94
341.16,557.41
341.61,557.20
342.05,557.26
342.49,557.51
342.93,557.86
343.38,558.23
343.82,558.56
344.26,558.78
344.70,558.84
345.15,558.70
345.59,558.34
346.03,557.75
346.47,556.96
346.92,556.01
347.36,554.95
347.80,553.87
348.24,552.85
348.68,551.97
349.13,551.32
349.57,550.94
350.01,550.84
350.45,551.01
350.89,551.39
351.34,551.89
351.78,552.41
352.22,552.82
352.66,553.03
353.10,552.96
353.54,552.57
353.99,551.88
354.43,550.94
354.87,549.87
355.31,548.82
355.75,547.94
356.19,547.39
356.63,547.30
357.08,547.77
357.52,548.81
357.96,550.39
358.40,552.41
358.84,554.71
359.28,557.11
359.72,559.42
360.16,561.46
360.60,563.12
361.05,564.30
361.49,565.00
361.93,565.26
362.37,565.19
362.81,564.92
363.25,564.61
363.69,564.40
364.13,564.41
364.57,564.75
365.01,565.45
365.45,566.50
365.89,567.85
366.33,569.40
366.78,571.02
367.22,572.60
367.66,574.01
368.10,575.15
368.54,575.96
368.98,576.43
369.42,576.58
369.86,576.51
370.30,576.30
370.74,576.08
371.18,575.96
371.62,576.03
372.06,576.37
372.50,576.97
372.94,577.82
373.38,578.86
373.82,580.00
374.26,581.17
374.70,582.27
375.14,583.24
375.58,584.06
376.02,584.70
376.46,585.19
376.90,585.56
377.34,585.84
377.78,586.07
378.21,586.28
378.65,586.49
379.09,586.69
379.53,586.89
379.97,587.09
380.41,587.27
380.85,587.44
381.29,587.61
381.73,587.79
382.17,587.99
382.61,588.26
383.05,588.59
383.49,589.03
383.93,589.57
384.36,590.24
384.80,591.03
385.24,591.94
385.68,593.01
386.12,594.24
386.56,595.67
387.00,597.37
387.44,599.38
387.87,601.78
388.31,604.62
388.75,607.91
389.19,611.67
389.63,615.81
390.07,620.26
390.51,624.85
390.94,629.43
391.38,633.81
391.82,637.82
392.26,641.36
392.70,644.34
393.14,646.78
393.57,648.75
394.01,650.38
394.45,651.86
394.89,653.38
395.33,655.12
395.76,657.26
396.20,659.89
396.64,663.05
397.08,666.75
397.52,670.90
397.95,675.42
398.39,680.18
398.83,685.07
399.27,689.97
399.70,694.82
400.14,699.55
400.58,704.14
401.02,708.59
401.45,712.90
401.89,717.11
402.33,721.26
402.77,725.38
403.20,729.54
403.64,733.76
404.08,738.10
404.52,742.58
404.95,747.23
405.39,752.04
405.83,757.00
406.26,762.09
406.70,767.25
407.14,772.43
407.58,777.57
408.01,782.59
408.45,787.46
408.89,792.15
409.32,796.64
409.76,800.97
410.20,805.20
410.63,809.39
411.07,813.65
411.51,818.07
411.94,822.71
412.38,827.62
412.82,832.83
413.25,838.29
413.69,843.94
414.12,849.70
414.56,855.45
415.00,861.08
415.43,866.50
415.87,871.65
416.31,876.49
416.74,881.06
417.18,885.43
417.61,889.72
418.05,894.07
418.49,898.64
418.92,903.58
419.36,909.00
419.79,914.97
420.23,921.47
420.67,928.45
421.10,935.78
421.54,943.33
421.97,950.91
422.41,958.36
422.84,965.55
423.28,972.39
423.71,978.85
424.15,984.94
424.59,990.72
425.02,996.30
425.46,1001.79
425.89,1007.33
426.33,1013.05
426.76,1019.08
427.20,1025.53
427.63,1032.47
428.07,1039.94
428.50,1047.96
428.94,1056.50
429.37,1065.51
429.81,1074.90
430.24,1084.58
430.68,1094.44
431.11,1104.39
431.55,1114.34
431.98,1124.21
432.42,1133.94
432.85,1143.49
433.28,1152.81
433.72,1161.88
434.15,1170.67
434.59,1179.16
435.02,1187.38
435.46,1195.32
435.89,1203.05
436.33,1210.62
436.76,1218.13
437.19,1225.65
437.63,1233.27
438.06,1241.04
438.50,1248.98
438.93,1257.07
439.37,1265.27
439.80,1273.47
440.23,1281.60
440.67,1289.57
441.10,1297.29
441.53,1304.75
441.97,1311.92
442.40,1318.84
442.84,1325.55
443.27,1332.09
443.70,1338.50
444.14,1344.82
444.57,1351.04
445.00,1357.18
445.44,1363.24
445.87,1369.23
446.30,1375.18
446.74,1381.17
447.17,1387.27
447.60,1393.61
448.04,1400.27
448.47,1407.36
448.90,1414.92
449.34,1422.98
449.77,1431.51
450.20,1440.45
450.64,1449.71
451.07,1459.22
451.50,1468.89
451.93,1478.68
452.37,1488.58
452.80,1498.60
453.23,1508.80
453.67,1519.25
454.10,1530.01
454.53,1541.15
454.96,1552.71
455.40,1564.73
455.83,1577.22
456.26,1590.18
456.69,1603.60
457.13,1617.48
457.56,1631.81
457.99,1646.57
458.42,1661.72
458.86,1677.20
459.29,1692.92
459.72,1708.74
460.15,1724.51
460.58,1740.07
461.02,1755.24
461.45,1769.89
461.88,1783.95
462.31,1797.38
462.74,1810.27
463.18,1822.73
463.61,1834.93
464.04,1847.08
464.47,1859.35
464.90,1871.90
465.33,1884.82
465.77,1898.16
466.20,1911.94
466.63,1926.17
467.06,1940.91
467.49,1956.24
467.92,1972.30
468.35,1989.32
468.78,2007.51
469.22,2027.07
469.65,2048.15
470.08,2070.78
470.51,2094.86
470.94,2120.15
471.37,2146.32
471.80,2172.99
472.23,2199.82
472.66,2226.53
473.10,2253.04
473.53,2279.43
473.96,2305.98
474.39,2333.12
474.82,2361.36
475.25,2391.20
475.68,2423.00
476.11,2456.96
476.54,2492.99
476.97,2530.78
477.40,2569.79
477.83,2609.38
478.26,2648.86
478.69,2687.69
479.12,2725.51
479.55,2762.26
479.98,2798.15
480.41,2833.61
480.84,2869.23
481.27,2905.58
481.70,2943.08
482.13,2981.93
482.56,3022.00
482.99,3062.83
483.42,3103.74
483.85,3143.89
484.28,3182.46
484.71,3218.82
485.14,3252.63
485.57,3283.96
486.00,3313.26
486.43,3341.33
486.86,3369.18
487.29,3397.87
487.72,3428.30
488.15,3461.11
488.58,3496.48
489.01,3534.17
489.44,3573.47
489.87,3613.38
490.30,3652.75
490.72,3690.46
491.15,3725.63
491.58,3757.80
492.01,3787.00
492.44,3813.75
492.87,3838.99
493.30,3863.92
493.73,3889.80
494.16,3917.69
494.59,3948.29
495.01,3981.79
495.44,4017.77
495.87,4055.31
496.30,4093.05
496.73,4129.48
497.16,4163.11
497.59,4192.77
498.01,4217.77
498.44,4238.04
498.87,4254.15
499.30,4267.22
499.73,4278.71
500.16,4290.27
500.58,4303.40
501.01,4319.25
501.44,4338.46
501.87,4361.02
502.30,4386.35
502.72,4413.35
503.15,4440.61
503.58,4466.66
504.01,4490.19
504.44,4510.30
504.86,4526.63
505.29,4539.46
505.72,4549.66
506.15,4558.60
506.57,4567.96
507.00,4579.48
507.43,4594.70
507.86,4614.76
508.28,4640.21
508.71,4670.91
509.14,4706.03
509.57,4744.16
509.99,4783.48
510.42,4822.00
510.85,4857.84
511.27,4889.46
511.70,4915.89
512.13,4936.87
512.56,4952.85
512.98,4964.93
513.41,4974.71
513.84,4984.00
514.26,4994.60
514.69,5008.00
515.12,5025.15
515.54,5046.34
515.97,5071.14
516.40,5098.45
516.82,5126.71
517.25,5154.08
517.68,5178.77
518.10,5199.23
518.53,5214.47
518.95,5224.14
519.38,5228.61
519.81,5228.91
520.23,5226.62
520.66,5223.64
521.09,5221.92
521.51,5223.20
521.94,5228.79
522.36,5239.41
522.79,5255.03
523.22,5274.95
523.64,5297.85
524.07,5321.98
524.49,5345.36
524.92,5366.10
525.34,5382.59
525.77,5393.73
526.20,5399.13
526.62,5399.10
527.05,5394.72
527.47,5387.63
527.90,5379.94
528.32,5373.93
528.75,5371.77
529.17,5375.31
529.60,5385.80
530.02,5403.74
530.45,5428.82
530.87,5459.94
531.30,5495.31
531.72,5532.66
532.15,5569.50
532.57,5603.40
533.00,5632.29
533.42,5654.69
533.85,5669.84
534.27,5677.88
534.70,5679.73
535.12,5677.03
535.55,5671.92
535.97,5666.77
536.40,5663.92
536.82,5665.34
537.25,5672.41
537.67,5685.73
538.09,5705.05
538.52,5729.28
538.94,5756.62
539.37,5784.79
539.79,5811.29
540.22,5833.70
540.64,5850.01
541.06,5858.85
541.49,5859.66
541.91,5852.77
542.34,5839.37
542.76,5821.34
543.18,5801.07
543.61,5781.14
544.03,5764.06
544.46,5751.98
544.88,5746.44
545.30,5748.22
545.73,5757.27
546.15,5772.74
546.57,5793.06
547.00,5816.19
547.42,5839.76
547.84,5861.41
548.27,5879.02
548.69,5890.94
549.11,5896.15
549.54,5894.41
549.96,5886.25
550.38,5872.94
550.81,5856.38
551.23,5838.88
551.65,5822.93
552.07,5810.98
552.50,5805.14
552.92,5806.99
553.34,5817.42
553.77,5836.54
554.19,5863.61
554.61,5897.20
555.03,5935.21
555.46,5975.15
555.88,6014.36
556.30,6050.22
556.72,6080.43
557.15,6103.23
557.57,6117.55
557.99,6123.11
558.41,6120.48
558.84,6111.01
559.26,6096.69
559.68,6079.99
560.10,6063.59
560.52,6050.16
560.95,6042.06
561.37,6041.13
561.79,6048.54
562.21,6064.64
562.63,6088.95
563.06,6120.22
563.48,6156.52
563.90,6195.47
564.32,6234.47
564.74,6270.89
565.16,6302.37
565.58,6327.03
566.01,6343.64
566.43,6351.73
566.85,6351.64
567.27,6344.49
567.69,6332.06
568.11,6316.63
568.53,6300.70
568.96,6286.82
569.38,6277.25
569.80,6273.81
570.22,6277.63
570.64,6289.06
571.06,6307.66
571.48,6332.22
571.90,6360.88
572.32,6391.31
572.74,6420.94
573.16,6447.18
573.58,6467.64
574.01,6480.39
574.43,6484.04
574.85,6477.93
575.27,6462.13
575.69,6437.50
576.11,6405.57
576.53,6368.48
576.95,6328.82
577.37,6289.40
577.79,6253.09
578.21,6222.59
578.63,6200.17
579.05,6187.56
579.47,6185.74
579.89,6194.89
580.31,6214.40
580.73,6242.86
581.15,6278.26
581.57,6318.08
581.99,6359.58
582.41,6399.96
582.83,6436.66
583.25,6467.47
583.67,6490.79
584.09,6505.69
584.51,6511.99
584.93,6510.25
585.34,6501.74
585.76,6488.32
586.18,6472.27
586.60,6456.15
587.02,6442.56
587.44,6433.97
587.86,6432.50
588.28,6439.80
588.70,6456.86
589.12,6484.02
589.54,6520.88
589.95,6566.40
590.37,6618.94
590.79,6676.41
591.21,6736.45
591.63,6796.57
592.05,6854.34
592.47,6907.60
592.89,6954.55
593.30,6993.94
593.72,7025.08
594.14,7047.98
594.56,7063.27
594.98,7072.18
595.40,7076.43
595.81,7078.13
596.23,7079.54
596.65,7082.98
597.07,7090.55
597.49,7104.00
597.90,7124.60
598.32,7153.00
598.74,7189.21
599.16,7232.57
599.58,7281.83
599.99,7335.23
600.41,7390.64
600.83,7445.71
601.25,7498.03
601.66,7545.34
602.08,7585.61
602.50,7617.25
602.92,7639.15
603.33,7650.80
603.75,7652.29
604.17,7644.28
604.59,7627.99
605.00,7605.07
605.42,7577.52
605.84,7547.50
606.25,7517.25
606.67,7488.87
607.09,7464.25
607.51,7444.95
607.92,7432.07
608.34,7426.27
608.76,7427.69
609.17,7436.04
609.59,7450.57
610.01,7470.20
610.42,7493.54
610.84,7519.07
611.26,7545.15
611.67,7570.19
612.09,7592.69
612.51,7611.35
612.92,7625.14
613.34,7633.39
613.75,7635.80
614.17,7632.47
614.59,7623.95
615.00,7611.15
615.42,7595.35
615.83,7578.06
616.25,7560.99
616.67,7545.86
617.08,7534.33
617.50,7527.89
617.91,7527.70
618.33,7534.58
618.75,7548.92
619.16,7570.65
619.58,7599.28
619.99,7633.88
620.41,7673.19
620.82,7715.68
621.24,7759.62
621.65,7803.25
622.07,7844.84
622.48,7882.82
622.90,7915.92
623.31,7943.19
623.73,7964.09
624.14,7978.52
624.56,7986.79
624.97,7989.59
625.39,7987.90
625.80,7982.95
626.22,7976.10
626.63,7968.75
627.05,7962.29
627.46,7957.99
627.88,7957.00
628.29,7960.28
628.71,7968.55
629.12,7982.30
629.54,8001.71
629.95,8026.72
630.37,8056.93
630.78,8091.70
631.19,8130.11
631.61,8171.03
632.02,8213.19
632.44,8255.23
632.85,8295.81
633.26,8333.65
633.68,8367.64
634.09,8396.86
634.51,8420.67
634.92,8438.72
635.33,8450.94
635.75,8457.57
636.16,8459.12
636.57,8456.34
636.99,8450.19
637.40,8441.77
637.82,8432.26
638.23,8422.91
638.64,8414.89
639.06,8409.33
639.47,8407.20
639.88,8409.29
640.30,8416.18
640.71,8428.22
641.12,8445.48
641.53,8467.82
641.95,8494.84
642.36,8525.94
642.77,8560.31
643.19,8597.05
643.60,8635.14
644.01,8673.54
644.42,8711.23
644.84,8747.30
645.25,8780.93
645.66,8811.52
646.08,8838.64
646.49,8862.09
646.90,8881.87
647.31,8898.19
647.73,8911.44
648.14,8922.16
648.55,8931.01
648.96,8938.74
649.37,8946.14
649.79,8954.02
650.20,8963.16
650.61,8974.29
651.02,8988.03
651.43,9004.88
651.85,9025.18
652.26,9049.11
652.67,9076.67
653.08,9107.66
653.49,9141.76
653.90,9178.43
654.32,9217.05
654.73,9256.84
655.14,9296.95
655.55,9336.50
655.96,9374.59
656.37,9410.36
656.78,9443.07
657.20,9472.11
657.61,9497.07
658.02,9517.79
658.43,9534.32
658.84,9546.96
659.25,9556.24
659.66,9562.84
660.07,9567.58
660.48,9571.35
660.90,9575.05
661.31,9579.57
661.72,9585.71
662.13,9594.22
662.54,9605.71
662.95,9620.65
663.36,9639.38
663.77,9662.03
664.18,9688.57
664.59,9718.77
665.00,9752.20
665.41,9788.25
665.82,9826.17
666.23,9865.12
666.64,9904.19
667.05,9942.51
667.46,9979.25
667.87,10013.69
668.28,10045.23
668.69,10073.43
669.10,10097.99
669.51,10118.74
669.92,10135.66
670.33,10148.82
670.74,10158.42
671.15,10164.76
671.56,10168.25
671.97,10169.41
672.38,10168.87
672.79,10167.33
673.20,10165.53
673.61,10164.25
674.02,10164.20
674.42,10166.05
674.83,10170.29
675.24,10177.32
675.65,10187.34
676.06,10200.39
676.47,10216.38
676.88,10235.09
677.29,10256.23
677.70,10279.44
678.11,10304.29
678.51,10330.34
678.92,10357.08
679.33,10383.94
679.74,10410.34
680.15,10435.61
680.56,10459.10
680.97,10480.15
681.37,10498.15
681.78,10512.60
682.19,10523.18
682.60,10529.71
683.01,10532.24
683.42,10531.01
683.82,10526.45
684.23,10519.15
684.64,10509.81
685.05,10499.20
685.45,10488.12
685.86,10477.36
686.27,10467.69
686.68,10459.82
687.09,10454.37
687.49,10451.89
687.90,10452.79
688.31,10457.39
688.72,10465.85
689.12,10478.17
689.53,10494.21
689.94,10513.70
690.35,10536.20
690.75,10561.16
691.16,10587.95
691.57,10615.85
691.97,10644.12
692.38,10672.00
692.79,10698.73
693.20,10723.62
693.60,10746.00
694.01,10765.33
694.42,10781.17
694.82,10793.23
695.23,10801.35
695.64,10805.57
696.04,10806.07
696.45,10803.19
696.86,10797.40
697.26,10789.26
697.67,10779.42
698.07,10768.58
698.48,10757.42
698.89,10746.65
699.29,10736.93
699.70,10728.86
700.11,10723.01
700.51,10719.83
700.92,10719.72
701.32,10722.95
701.73,10729.68
702.14,10739.99
702.54,10753.81
702.95,10770.98
703.35,10791.24
703.76,10814.22
704.16,10839.47
704.57,10866.47
704.97,10894.62
705.38,10923.30
705.79,10951.90
706.19,10979.79
706.60,11006.44
707.00,11031.36
707.41,11054.18
707.81,11074.62
708.22,11092.51
708.62,11107.76
709.03,11120.31
709.43,11130.17
709.84,11137.33
710.24,11141.80
710.65,11143.58
711.05,11142.74
711.46,11139.39
711.86,11133.75
712.27,11126.16
712.67,11117.12
713.07,11107.27
713.48,11097.38
713.88,11088.25
714.29,11080.72
714.69,11075.58
715.10,11073.48
715.50,11074.94
715.90,11080.26
716.31,11089.57
716.71,11102.79
717.12,11119.67
717.52,11139.81
717.92,11162.69
718.33,11187.67
718.73,11214.06
719.14,11241.12
719.54,11268.10
719.94,11294.27
720.35,11318.93
720.75,11341.48
721.15,11361.42
721.56,11378.35
721.96,11392.04
722.36,11402.35
722.77,11409.29
723.17,11412.94
723.57,11413.51
723.98,11411.23
724.38,11406.42
724.78,11399.39
725.19,11390.51
725.59,11380.14
725.99,11368.63
726.39,11356.37
726.80,11343.70
727.20,11330.99
727.60,11318.62
728.00,11306.95
728.41,11296.38
728.81,11287.30
729.21,11280.11
729.61,11275.20
730.02,11272.90
730.42,11273.47
730.82,11277.04
731.22,11283.60
731.63,11292.93
732.03,11304.68
732.43,11318.30
732.83,11333.17
733.23,11348.57
733.64,11363.81
734.04,11378.24
734.44,11391.29
734.84,11402.51
735.24,11411.52
