wavelength,counts
188.65,10.25
189.10,10.25
189.56,10.25
190.01,10.25
190.47,10.25
190.92,47.28
191.37,62.22
191.83,78.81
192.28,96.66
192.74,115.33
193.19,134.31
193.64,153.08
194.10,172.11
194.55,191.26
195.01,210.42
195.46,229.50
195.91,248.45
196.37,267.22
196.82,285.76
197.27,304.05
197.73,322.05
198.18,339.74
198.63,357.10
199.09,374.08
199.54,390.62
199.99,406.62
200.45,421.98
200.90,436.57
201.35,450.25
201.81,462.91
202.26,474.44
202.71,484.75
203.17,493.82
203.62,501.64
204.07,508.23
204.53,513.65
204.98,517.99
205.43,521.34
205.89,523.80
206.34,525.45
206.79,526.41
207.25,526.76
207.70,526.58
208.15,525.97
208.60,524.98
209.06,523.72
209.51,522.24
209.96,520.62
210.41,518.95
210.87,517.29
211.32,515.71
211.77,514.25
212.23,512.97
212.68,511.87
213.13,510.96
213.58,510.19
214.04,509.53
214.49,508.88
214.94,508.17
215.39,507.31
215.84,506.21
216.30,504.83
216.75,503.15
217.20,501.18
217.65,498.99
218.11,496.66
218.56,494.31
219.01,492.06
219.46,490.03
219.91,488.34
220.37,487.05
220.82,486.21
221.27,485.84
221.72,485.93
222.17,486.45
222.63,487.34
223.08,488.58
223.53,490.11
223.98,491.90
224.43,493.91
224.88,496.12
225.34,498.48
225.79,500.95
226.24,503.45
226.69,505.93
227.14,508.30
227.59,510.48
228.04,512.39
228.50,513.97
228.95,515.17
229.40,515.96
229.85,516.34
230.30,516.32
230.75,515.93
231.20,515.24
231.66,514.30
232.11,513.22
232.56,512.08
233.01,510.99
233.46,510.05
233.91,509.34
234.36,508.92
234.81,508.82
235.26,509.05
235.71,509.56
236.17,510.29
236.62,511.14
237.07,512.01
237.52,512.80
237.97,513.43
238.42,513.83
238.87,513.96
239.32,513.80
239.77,513.35
240.22,512.64
240.67,511.69
241.12,510.53
241.57,509.21
242.02,507.77
242.47,506.26
242.92,504.74
243.37,503.27
243.82,501.92
244.27,500.77
244.72,499.91
245.18,499.42
245.63,499.37
246.08,499.80
246.53,500.76
246.98,502.24
247.43,504.20
247.88,506.57
248.33,509.23
248.78,512.05
249.23,514.89
249.68,517.60
250.12,520.04
250.57,522.10
251.02,523.70
251.47,524.79
251.92,525.37
252.37,525.46
252.82,525.10
253.27,524.35
253.72,523.29
254.17,521.99
254.62,520.52
255.07,518.92
255.52,517.27
255.97,515.59
256.42,513.93
256.87,512.31
257.32,510.77
257.77,509.35
258.22,508.09
258.66,507.02
259.11,506.18
259.56,505.60
260.01,505.31
260.46,505.31
260.91,505.58
261.36,506.07
261.81,506.73
262.26,507.50
262.71,508.29
263.15,509.03
263.60,509.67
264.05,510.18
264.50,510.55
264.95,510.77
265.40,510.87
265.85,510.86
266.30,510.75
266.74,510.54
267.19,510.20
267.64,509.70
268.09,509.00
268.54,508.07
268.99,506.89
269.43,505.47
269.88,503.85
270.33,502.10
270.78,500.33
271.23,498.64
271.68,497.17
272.12,496.03
272.57,495.33
273.02,495.11
273.47,495.41
273.92,496.20
274.36,497.43
274.81,499.00
275.26,500.81
275.71,502.74
276.16,504.71
276.60,506.61
277.05,508.40
277.50,510.04
277.95,511.52
278.39,512.85
278.84,514.07
279.29,515.18
279.74,516.21
280.19,517.15
280.63,517.99
281.08,518.70
281.53,519.24
281.98,519.59
282.42,519.70
282.87,519.59
283.32,519.26
283.76,518.76
284.21,518.16
284.66,517.53
285.11,516.95
285.55,516.50
286.00,516.21
286.45,516.10
286.89,516.15
287.34,516.29
287.79,516.45
288.23,516.56
288.68,516.54
289.13,516.32
289.58,515.89
290.02,515.24
290.47,514.40
290.92,513.41
291.36,512.33
291.81,511.19
292.26,510.06
292.70,508.96
293.15,507.94
293.60,507.02
294.04,506.27
294.49,505.73
294.93,505.48
295.38,505.60
295.83,506.14
296.27,507.15
296.72,508.63
297.17,510.54
297.61,512.80
298.06,515.28
298.50,517.84
298.95,520.32
299.40,522.59
299.84,524.53
300.29,526.07
300.73,527.16
301.18,527.82
301.63,528.06
302.07,527.94
302.52,527.48
302.96,526.76
303.41,525.81
303.85,524.70
304.30,523.48
304.75,522.24
305.19,521.07
305.64,520.07
306.08,519.36
306.53,519.03
306.97,519.17
307.42,519.83
307.86,521.02
308.31,522.71
308.75,524.84
309.20,527.31
309.65,529.99
310.09,532.76
310.54,535.50
310.98,538.09
311.43,540.44
311.87,542.46
312.32,544.10
312.76,545.33
313.21,546.13
313.65,546.52
314.10,546.54
314.54,546.26
314.99,545.75
315.43,545.09
315.87,544.33
316.32,543.52
316.76,542.66
317.21,541.76
317.65,540.76
318.10,539.64
318.54,538.36
318.99,536.89
319.43,535.25
319.88,533.45
320.32,531.55
320.76,529.61
321.21,527.68
321.65,525.80
322.10,524.02
322.54,522.33
322.99,520.73
323.43,519.22
323.87,517.79
324.32,516.46
324.76,515.27
325.21,514.27
325.65,513.55
326.09,513.18
326.54,513.23
326.98,513.74
327.42,514.70
327.87,516.08
328.31,517.80
328.76,519.72
329.20,521.71
329.64,523.64
330.09,525.38
330.53,526.85
330.97,528.02
331.42,528.92
331.86,529.60
332.30,530.16
332.75,530.72
333.19,531.37
333.63,532.17
334.08,533.15
334.52,534.29
334.96,535.49
335.41,536.65
335.85,537.64
336.29,538.31
336.74,538.54
337.18,538.25
337.62,537.41
338.06,536.03
338.51,534.17
338.95,531.95
339.39,529.50
339.84,526.99
340.28,524.57
340.72,522.40
341.16,520.62
341.61,519.33
342.05,518.59
342.49,518.44
342.93,518.86
343.38,519.80
343.82,521.19
344.26,522.91
344.70,524.83
345.15,526.81
345.59,528.70
346.03,530.37
346.47,531.71
346.92,532.62
347.36,533.04
347.80,532.98
348.24,532.46
348.68,531.57
349.13,530.40
349.57,529.09
350.01,527.78
350.45,526.62
350.89,525.70
351.34,525.12
351.78,524.92
352.22,525.12
352.66,525.69
353.10,526.61
353.54,527.81
353.99,529.25
354.43,530.89
354.87,532.71
355.31,534.67
355.75,536.78
356.19,539.02
356.63,541.38
357.08,543.82
357.52,546.31
357.96,548.76
358.40,551.09
358.84,553.20
359.28,555.00
359.72,556.39
360.16,557.34
360.60,557.81
361.05,557.84
361.49,557.51
361.93,556.90
362.37,556.13
362.81,555.33
363.25,554.59
363.69,553.96
364.13,553.48
364.57,553.10
365.01,552.78
365.45,552.43
365.89,551.98
366.33,551.36
366.78,550.56
367.22,549.59
367.66,548.53
368.10,547.46
368.54,546.50
368.98,545.77
369.42,545.35
369.86,545.29
370.30,545.58
370.74,546.17
371.18,546.97
371.62,547.86
372.06,548.73
372.50,549.48
372.94,550.05
373.38,550.44
373.82,550.68
374.26,550.88
374.70,551.13
375.14,551.58
375.58,552.34
376.02,553.47
376.46,555.02
376.90,556.95
377.34,559.18
377.78,561.59
378.21,564.04
378.65,566.35
379.09,568.38
379.53,570.02
379.97,571.20
380.41,571.88
380.85,572.10
381.29,571.92
381.73,571.46
382.17,570.86
382.61,570.24
383.05,569.77
383.49,569.57
383.93,569.75
384.36,570.40
384.80,571.54
385.24,573.19
385.68,575.31
386.12,577.82
386.56,580.62
387.00,583.58
387.44,586.56
387.87,589.40
388.31,591.98
388.75,594.17
389.19,595.87
389.63,597.03
390.07,597.61
390.51,597.63
390.94,597.15
391.38,596.25
391.82,595.06
392.26,593.71
392.70,592.35
393.14,591.11
393.57,590.14
394.01,589.52
394.45,589.34
394.89,589.62
395.33,590.39
395.76,591.62
396.20,593.28
396.64,595.34
397.08,597.78
397.52,600.56
397.95,603.65
398.39,607.06
398.83,610.76
399.27,614.74
399.70,618.96
400.14,623.39
400.58,627.96
401.02,632.64
401.45,637.35
401.89,642.05
402.33,646.69
402.77,651.24
403.20,655.70
403.64,660.07
404.08,664.34
404.52,668.53
404.95,672.65
405.39,676.68
405.83,680.62
406.26,684.47
406.70,688.21
407.14,691.86
407.58,695.42
408.01,698.94
408.45,702.47
408.89,706.08
409.32,709.85
409.76,713.87
410.20,718.20
410.63,722.90
411.07,728.02
411.51,733.56
411.94,739.50
412.38,745.82
412.82,752.46
413.25,759.35
413.69,766.42
414.12,773.61
414.56,780.84
415.00,788.09
415.43,795.33
415.87,802.55
416.31,809.79
416.74,817.06
417.18,824.41
417.61,831.86
418.05,839.46
418.49,847.18
418.92,855.04
419.36,862.98
419.79,870.97
420.23,878.97
420.67,886.93
421.10,894.83
421.54,902.68
421.97,910.48
422.41,918.30
422.84,926.17
423.28,934.16
423.71,942.32
424.15,950.65
424.59,959.17
425.02,967.82
425.46,976.57
425.89,985.34
426.33,994.05
426.76,1002.64
427.20,1011.06
427.63,1019.31
428.07,1027.39
428.50,1035.33
428.94,1043.18
429.37,1051.00
429.81,1058.83
430.24,1066.70
430.68,1074.62
431.11,1082.60
431.55,1090.61
431.98,1098.64
432.42,1106.66
432.85,1114.64
433.28,1122.56
433.72,1130.44
434.15,1138.26
434.59,1146.05
435.02,1153.81
435.46,1161.58
435.89,1169.36
436.33,1177.16
436.76,1184.98
437.19,1192.83
437.63,1200.70
438.06,1208.58
438.50,1216.46
438.93,1224.35
439.37,1232.26
439.80,1240.20
440.23,1248.19
440.67,1256.27
441.10,1264.44
441.53,1272.73
441.97,1281.12
442.40,1289.55
442.84,1297.96
443.27,1306.25
443.70,1314.27
444.14,1321.91
444.57,1329.04
445.00,1335.56
445.44,1341.43
445.87,1346.65
446.30,1351.30
446.74,1355.51
447.17,1359.46
447.60,1363.35
448.04,1367.41
448.47,1371.84
448.90,1376.83
449.34,1382.51
449.77,1388.96
450.20,1396.24
450.64,1404.33
451.07,1413.18
451.50,1422.71
451.93,1432.81
452.37,1443.35
452.80,1454.21
453.23,1465.26
453.67,1476.37
454.10,1487.45
454.53,1498.42
454.96,1509.25
455.40,1519.93
455.83,1530.52
456.26,1541.11
456.69,1551.83
457.13,1562.80
457.56,1574.20
457.99,1586.14
458.42,1598.76
458.86,1612.11
459.29,1626.24
459.72,1641.11
460.15,1656.68
460.58,1672.84
461.02,1689.47
461.45,1706.41
461.88,1723.51
462.31,1740.62
462.74,1757.59
463.18,1774.31
463.61,1790.68
464.04,1806.62
464.47,1822.08
464.90,1837.04
465.33,1851.50
465.77,1865.49
466.20,1879.05
466.63,1892.27
467.06,1905.25
467.49,1918.13
467.92,1931.06
468.35,1944.22
468.78,1957.81
469.22,1972.00
469.65,1986.99
470.08,2002.91
470.51,2019.91
470.94,2038.10
471.37,2057.58
471.80,2078.44
472.23,2100.77
472.66,2124.68
473.10,2150.24
473.53,2177.53
473.96,2206.61
474.39,2237.49
474.82,2270.13
475.25,2304.41
475.68,2340.16
476.11,2377.12
476.54,2414.94
476.97,2453.25
477.40,2491.61
477.83,2529.60
478.26,2566.82
478.69,2602.94
479.12,2637.75
479.55,2671.15
479.98,2703.20
480.41,2734.08
480.84,2764.10
481.27,2793.62
481.70,2823.02
482.13,2852.65
482.56,2882.81
482.99,2913.71
483.42,2945.45
483.85,2978.06
484.28,3011.49
484.71,3045.62
485.14,3080.33
485.57,3115.44
486.00,3150.80
486.43,3186.27
486.86,3221.73
487.29,3257.14
487.72,3292.51
488.15,3327.94
488.58,3363.58
489.01,3399.64
489.44,3436.31
489.87,3473.72
490.30,3511.88
490.72,3550.66
491.15,3589.78
491.58,3628.79
492.01,3667.20
492.44,3704.46
492.87,3740.14
493.30,3773.89
493.73,3805.54
494.16,3835.09
494.59,3862.61
495.01,3888.26
495.44,3912.16
495.87,3934.40
496.30,3954.99
496.73,3973.90
497.16,3991.10
497.59,4006.62
498.01,4020.60
498.44,4033.34
498.87,4045.25
499.30,4056.85
499.73,4068.68
500.16,4081.24
500.58,4094.91
501.01,4109.97
501.44,4126.55
501.87,4144.72
502.30,4164.51
502.72,4185.95
503.15,4209.13
503.58,4234.15
504.01,4261.14
504.44,4290.14
504.86,4321.09
505.29,4353.74
505.72,4387.68
506.15,4422.32
506.57,4457.02
507.00,4491.12
507.43,4524.09
507.86,4555.55
508.28,4585.39
508.71,4613.66
509.14,4640.59
509.57,4666.47
509.99,4691.55
510.42,4715.95
510.85,4739.63
511.27,4762.33
511.70,4783.68
512.13,4803.21
512.56,4820.53
512.98,4835.34
513.41,4847.58
513.84,4857.39
514.26,4865.13
514.69,4871.31
515.12,4876.49
515.54,4881.17
515.97,4885.76
516.40,4890.51
516.82,4895.52
517.25,4900.79
517.68,4906.27
518.10,4911.98
518.53,4917.99
518.95,4924.52
519.38,4931.84
519.81,4940.29
520.23,4950.13
520.66,4961.55
521.09,4974.57
521.51,4989.08
521.94,5004.84
522.36,5021.61
522.79,5039.19
523.22,5057.54
523.64,5076.82
524.07,5097.36
524.49,5119.61
524.92,5144.05
525.34,5170.98
525.77,5200.44
526.20,5232.13
526.62,5265.33
527.05,5298.98
527.47,5331.79
527.90,5362.46
528.32,5389.84
528.75,5413.11
529.17,5431.96
529.60,5446.58
530.02,5457.63
530.45,5466.09
530.87,5473.10
531.30,5479.67
531.72,5486.54
532.15,5493.99
532.57,5501.84
533.00,5509.45
533.42,5515.90
533.85,5520.17
534.27,5521.37
534.70,5518.94
535.12,5512.78
535.55,5503.27
535.97,5491.24
536.40,5477.79
536.82,5464.14
537.25,5451.39
537.67,5440.34
538.09,5431.41
538.52,5424.58
538.94,5419.48
539.37,5415.54
539.79,5412.14
540.22,5408.83
540.64,5405.41
541.06,5402.08
541.49,5399.37
541.91,5398.06
542.34,5399.03
542.76,5403.08
543.18,5410.72
543.61,5422.09
544.03,5436.89
544.46,5454.38
544.88,5473.54
545.30,5493.24
545.73,5512.42
546.15,5530.29
546.57,5546.48
547.00,5561.12
547.42,5574.79
547.84,5588.45
548.27,5603.21
548.69,5620.16
549.11,5640.12
549.54,5663.48
549.96,5690.09
550.38,5719.25
550.81,5749.75
551.23,5780.11
551.65,5808.74
552.07,5834.21
552.50,5855.46
552.92,5871.95
553.34,5883.77
553.77,5891.53
554.19,5896.34
554.61,5899.51
555.03,5902.37
555.46,5906.01
555.88,5911.04
556.30,5917.53
556.72,5924.88
557.15,5931.99
557.57,5937.37
557.99,5939.37
558.41,5936.51
558.84,5927.71
559.26,5912.51
559.68,5891.20
560.10,5864.86
560.52,5835.23
560.95,5804.51
561.37,5775.10
561.79,5749.26
562.21,5728.82
562.63,5714.95
563.06,5708.03
563.48,5707.60
563.90,5712.51
564.32,5721.14
564.74,5731.63
565.16,5742.25
565.58,5751.66
566.01,5759.08
566.43,5764.45
566.85,5768.39
567.27,5772.03
567.69,5776.83
568.11,5784.26
568.53,5795.53
568.96,5811.35
569.38,5831.74
569.80,5856.00
570.22,5882.78
570.64,5910.26
571.06,5936.37
571.48,5959.15
571.90,5977.02
572.32,5989.02
572.74,5994.99
573.16,5995.62
573.58,5992.33
574.01,5987.16
574.43,5982.43
574.85,5980.43
575.27,5983.14
575.69,5991.92
576.11,6007.33
576.53,6029.01
576.95,6055.81
577.37,6085.86
577.79,6116.85
578.21,6146.35
578.63,6172.12
579.05,6192.39
579.47,6206.12
579.89,6213.06
580.31,6213.85
580.73,6209.84
581.15,6202.97
581.57,6195.45
581.99,6189.51
582.41,6187.07
582.83,6189.52
583.25,6197.51
583.67,6210.89
584.09,6228.67
584.51,6249.21
584.93,6270.36
585.34,6289.74
585.76,6305.07
586.18,6314.41
586.60,6316.48
587.02,6310.81
587.44,6297.81
587.86,6278.80
588.28,6255.85
588.70,6231.59
589.12,6208.88
589.54,6190.54
589.95,6179.00
590.37,6176.03
590.79,6182.56
591.21,6198.56
591.63,6223.08
592.05,6254.38
592.47,6290.13
592.89,6327.72
593.30,6364.55
593.72,6398.39
594.14,6427.61
594.56,6451.37
594.98,6469.75
595.40,6483.63
595.81,6494.66
596.23,6504.97
596.65,6516.88
597.07,6532.62
597.49,6554.03
597.90,6582.29
598.32,6617.77
598.74,6660.01
599.16,6707.73
599.58,6758.97
599.99,6811.36
600.41,6862.36
600.83,6909.56
601.25,6950.92
601.66,6985.04
602.08,7011.26
602.50,7029.78
602.92,7041.56
603.33,7048.25
603.75,7052.02
604.17,7055.26
604.59,7060.33
605.00,7069.33
605.42,7083.77
605.84,7104.46
606.25,7131.36
606.67,7163.60
607.09,7199.55
607.51,7236.98
607.92,7273.35
608.34,7306.07
608.76,7332.84
609.17,7351.88
609.59,7362.19
610.01,7363.66
610.42,7357.09
610.84,7344.17
611.26,7327.24
611.67,7309.06
612.09,7292.56
612.51,7280.47
612.92,7275.10
613.34,7278.05
613.75,7290.16
614.17,7311.34
614.59,7340.70
615.00,7376.59
615.42,7416.79
615.83,7458.77
616.25,7499.86
616.67,7537.53
617.08,7569.58
617.50,7594.36
617.91,7610.85
618.33,7618.77
618.75,7618.57
619.16,7611.39
619.58,7598.94
619.99,7583.32
620.41,7566.85
620.82,7551.82
621.24,7540.30
621.65,7533.94
622.07,7533.83
622.48,7540.44
622.90,7553.55
623.31,7572.29
623.73,7595.30
624.14,7620.77
624.56,7646.69
624.97,7670.98
625.39,7691.73
625.80,7707.34
626.22,7716.63
626.63,7719.02
627.05,7714.50
627.46,7703.70
627.88,7687.78
628.29,7668.36
628.71,7647.38
629.12,7626.96
629.54,7609.17
629.95,7595.93
630.37,7588.79
630.78,7588.85
631.19,7596.61
631.61,7611.98
632.02,7634.26
632.44,7662.19
632.85,7694.06
633.26,7727.87
633.68,7761.45
634.09,7792.74
634.51,7819.90
634.92,7841.50
635.33,7856.68
635.75,7865.20
636.16,7867.47
636.57,7864.54
636.99,7857.99
637.40,7849.75
637.82,7841.98
638.23,7836.81
638.64,7836.17
639.06,7841.62
639.47,7854.19
639.88,7874.29
640.30,7901.72
640.71,7935.66
641.12,7974.77
641.53,8017.36
641.95,8061.50
642.36,8105.20
642.77,8146.62
643.19,8184.19
643.60,8216.75
644.01,8243.64
644.42,8264.74
644.84,8280.46
645.25,8291.73
645.66,8299.89
646.08,8306.56
646.49,8313.55
646.90,8322.66
647.31,8335.56
647.73,8353.64
648.14,8377.90
648.55,8408.88
648.96,8446.60
649.37,8490.56
649.79,8539.81
650.20,8592.98
650.61,8648.42
651.02,8704.29
651.43,8758.75
651.85,8810.04
652.26,8856.62
652.67,8897.30
653.08,8931.34
653.49,8958.42
653.90,8978.76
654.32,8993.04
654.73,9002.37
655.14,9008.21
655.55,9012.24
655.96,9016.28
656.37,9022.11
656.78,9031.34
657.20,9045.33
657.61,9065.05
658.02,9091.02
658.43,9123.28
658.84,9161.40
659.25,9204.51
659.66,9251.40
660.07,9300.58
660.48,9350.45
660.90,9399.36
661.31,9445.79
661.72,9488.40
662.13,9526.11
662.54,9558.16
662.95,9584.11
663.36,9603.85
663.77,9617.54
664.18,9625.62
664.59,9628.74
665.00,9627.71
665.41,9623.50
665.82,9617.18
666.23,9609.94
666.64,9602.99
667.05,9597.54
667.46,9594.78
667.87,9595.73
668.28,9601.19
668.69,9611.68
669.10,9627.31
669.51,9647.77
669.92,9672.31
670.33,9699.80
670.74,9728.78
671.15,9757.64
671.56,9784.69
671.97,9808.36
672.38,9827.37
672.79,9840.75
673.20,9848.00
673.61,9849.07
674.02,9844.32
674.42,9834.53
674.83,9820.75
675.24,9804.27
675.65,9786.47
676.06,9768.80
676.47,9752.64
676.88,9739.30
677.29,9729.90
677.70,9725.36
678.11,9726.33
678.51,9733.12
678.92,9745.70
679.33,9763.68
679.74,9786.28
680.15,9812.45
680.56,9840.83
680.97,9869.96
681.37,9898.33
681.78,9924.50
682.19,9947.24
682.60,9965.61
683.01,9978.99
683.42,9987.15
683.82,9990.23
684.23,9988.71
684.64,9983.33
685.05,9975.10
685.45,9965.15
685.86,9954.69
686.27,9944.94
686.68,9937.04
687.09,9932.00
687.49,9930.65
687.90,9933.55
688.31,9941.07
688.72,9953.27
689.12,9969.99
689.53,9990.85
689.94,10015.27
690.35,10042.52
690.75,10071.74
691.16,10102.00
691.57,10132.29
691.97,10161.60
692.38,10188.91
692.79,10213.26
693.20,10233.78
693.60,10249.79
694.01,10260.79
694.42,10266.59
694.82,10267.30
695.23,10263.36
695.64,10255.54
696.04,10244.94
696.45,10232.86
696.86,10220.78
697.26,10210.25
697.67,10202.76
698.07,10199.64
698.48,10201.99
698.89,10210.60
699.29,10225.86
699.70,10247.80
700.11,10276.08
700.51,10310.01
700.92,10348.62
701.32,10390.76
701.73,10435.14
702.14,10480.44
702.54,10525.35
702.95,10568.66
703.35,10609.29
703.76,10646.32
704.16,10679.01
704.57,10706.80
704.97,10729.36
705.38,10746.51
705.79,10758.31
706.19,10764.99
706.60,10767.00
707.00,10764.99
707.41,10759.77
707.81,10752.37
708.22,10743.94
708.62,10735.74
709.03,10729.10
709.43,10725.33
709.84,10725.65
710.24,10731.10
710.65,10742.49
711.05,10760.28
711.46,10784.61
711.86,10815.19
712.27,10851.34
712.67,10892.04
713.07,10935.93
713.48,10981.44
713.88,11026.86
714.29,11070.43
714.69,11110.46
715.10,11145.41
715.50,11173.97
715.90,11195.16
716.31,11208.33
716.71,11213.22
717.12,11209.96
717.52,11199.08
717.92,11181.47
718.33,11158.30
718.73,11131.00
719.14,11101.15
719.54,11070.36
719.94,11040.23
720.35,11012.23
720.75,10987.60
721.15,10967.35
721.56,10952.18
721.96,10942.51
722.36,10938.42
722.77,10939.76
723.17,10946.09
723.57,10956.78
723.98,10971.00
724.38,10987.77
724.78,11005.99
725.19,11024.48
725.59,11042.06
725.99,11057.54
726.39,11069.85
726.80,11078.03
727.20,11081.34
727.60,11079.22
728.00,11071.40
728.41,11057.82
728.81,11038.64
729.21,11014.27
729.61,10985.26
730.02,10952.30
730.42,10916.23
730.82,10877.96
731.22,10838.44
731.63,10798.72
732.03,10759.80
732.43,10722.71
732.83,10688.42
733.23,10657.79
733.64,10631.59
734.04,10610.38
734.44,10594.57
734.84,10584.33
735.24,10579.62
735.64,10580.17
736.05,10585.51
736.45,10594.98
