wavelength,counts
188.65,0.00
189.10,0.00
189.56,0.00
190.01,0.00
190.47,0.00
190.92,36.90
191.37,52.01
191.83,68.95
192.28,87.42
192.74,107.02
193.19,127.29
193.64,147.75
194.10,168.87
194.55,190.51
195.01,212.52
195.46,234.76
195.91,257.05
196.37,279.23
196.82,301.07
197.27,322.34
197.73,342.83
198.18,362.28
198.63,380.50
199.09,397.29
199.54,412.52
199.99,426.10
200.45,438.00
200.90,448.25
201.35,456.96
201.81,464.27
202.26,470.37
202.71,475.48
203.17,479.82
203.62,483.59
204.07,486.97
204.53,490.11
204.98,493.10
205.43,495.96
205.89,498.71
206.34,501.28
206.79,503.60
207.25,505.61
207.70,507.20
208.15,508.33
208.60,508.94
209.06,509.03
209.51,508.60
209.96,507.69
210.41,506.35
210.87,504.66
211.32,502.71
211.77,500.59
212.23,498.42
212.68,496.31
213.13,494.38
213.58,492.76
214.04,491.56
214.49,490.85
214.94,490.70
215.39,491.13
215.84,492.12
216.30,493.59
216.75,495.45
217.20,497.56
217.65,499.78
218.11,501.95
218.56,503.93
219.01,505.60
219.46,506.88
219.91,507.70
220.37,508.07
220.82,507.98
221.27,507.51
221.72,506.72
222.17,505.70
222.63,504.55
223.08,503.36
223.53,502.23
223.98,501.23
224.43,500.41
224.88,499.77
225.34,499.31
225.79,498.98
226.24,498.71
226.69,498.39
227.14,497.93
227.59,497.23
228.04,496.22
228.50,494.87
228.95,493.20
229.40,491.27
229.85,489.19
230.30,487.13
230.75,485.26
231.20,483.74
231.66,482.73
232.11,482.34
232.56,482.64
233.01,483.62
233.46,485.23
233.91,487.36
234.36,489.85
234.81,492.53
235.26,495.21
235.71,497.72
236.17,499.90
236.62,501.63
237.07,502.86
237.52,503.54
237.97,503.69
238.42,503.40
238.87,502.76
239.32,501.89
239.77,500.94
240.22,500.05
240.67,499.36
241.12,498.98
241.57,498.98
242.02,499.43
242.47,500.34
242.92,501.69
243.37,503.45
243.82,505.56
244.27,507.94
244.72,510.53
245.18,513.24
245.63,516.00
246.08,518.72
246.53,521.34
246.98,523.79
247.43,526.00
247.88,527.92
248.33,529.49
248.78,530.69
249.23,531.50
249.68,531.94
250.12,532.00
250.57,531.73
251.02,531.14
251.47,530.26
251.92,529.11
252.37,527.70
252.82,526.04
253.27,524.12
253.72,521.95
254.17,519.58
254.62,517.04
255.07,514.41
255.52,511.79
255.97,509.27
256.42,506.98
256.87,505.02
257.32,503.46
257.77,502.37
258.22,501.75
258.66,501.57
259.11,501.74
259.56,502.17
260.01,502.73
260.46,503.28
260.91,503.70
261.36,503.90
261.81,503.81
262.26,503.43
262.71,502.77
263.15,501.91
263.60,500.94
264.05,499.94
264.50,499.02
264.95,498.24
265.40,497.65
265.85,497.27
266.30,497.08
266.74,497.06
267.19,497.17
267.64,497.36
268.09,497.60
268.54,497.87
268.99,498.17
269.43,498.50
269.88,498.87
270.33,499.29
270.78,499.76
271.23,500.30
271.68,500.89
272.12,501.52
272.57,502.20
273.02,502.92
273.47,503.69
273.92,504.51
274.36,505.42
274.81,506.44
275.26,507.57
275.71,508.83
276.16,510.21
276.60,511.68
277.05,513.21
277.50,514.77
277.95,516.31
278.39,517.80
278.84,519.21
279.29,520.53
279.74,521.76
280.19,522.88
280.63,523.88
281.08,524.74
281.53,525.40
281.98,525.82
282.42,525.91
282.87,525.62
283.32,524.91
283.76,523.75
284.21,522.20
284.66,520.32
285.11,518.25
285.55,516.15
286.00,514.20
286.45,512.58
286.89,511.45
287.34,510.92
287.79,511.02
288.23,511.73
288.68,512.96
289.13,514.54
289.58,516.29
290.02,517.98
290.47,519.40
290.92,520.38
291.36,520.80
291.81,520.60
292.26,519.80
292.70,518.48
293.15,516.77
293.60,514.84
294.04,512.86
294.49,510.99
294.93,509.36
295.38,508.07
295.83,507.14
296.27,506.58
296.72,506.34
297.17,506.35
297.61,506.52
298.06,506.80
298.50,507.14
298.95,507.53
299.40,507.98
299.84,508.55
300.29,509.31
300.73,510.32
301.18,511.62
301.63,513.23
302.07,515.11
302.52,517.21
302.96,519.42
303.41,521.61
303.85,523.68
304.30,525.53
304.75,527.10
305.19,528.36
305.64,529.32
306.08,530.01
306.53,530.49
306.97,530.81
307.42,531.02
307.86,531.14
308.31,531.19
308.75,531.15
309.20,531.01
309.65,530.75
310.09,530.35
310.54,529.81
310.98,529.12
311.43,528.29
311.87,527.32
312.32,526.23
312.76,525.05
313.21,523.81
313.65,522.53
314.10,521.26
314.54,520.05
314.99,518.97
315.43,518.08
315.87,517.42
316.32,517.05
316.76,516.98
317.21,517.21
317.65,517.68
318.10,518.34
318.54,519.09
318.99,519.84
319.43,520.48
319.88,520.94
320.32,521.18
320.76,521.19
321.21,520.99
321.65,520.64
322.10,520.19
322.54,519.72
322.99,519.26
323.43,518.86
323.87,518.49
324.32,518.16
324.76,517.81
325.21,517.41
325.65,516.96
326.09,516.45
326.54,515.93
326.98,515.45
327.42,515.09
327.87,514.94
328.31,515.06
328.76,515.52
329.20,516.31
329.64,517.40
330.09,518.71
330.53,520.15
330.97,521.58
331.42,522.88
331.86,523.94
332.30,524.66
332.75,525.02
333.19,525.03
333.63,524.75
334.08,524.29
334.52,523.77
334.96,523.33
335.41,523.11
335.85,523.19
336.29,523.64
336.74,524.44
337.18,525.55
337.62,526.88
338.06,528.30
338.51,529.69
338.95,530.90
339.39,531.85
339.84,532.47
340.28,532.72
340.72,532.63
341.16,532.24
341.61,531.60
342.05,530.78
342.49,529.84
342.93,528.85
343.38,527.83
343.82,526.84
344.26,525.90
344.70,525.06
345.15,524.37
345.59,523.90
346.03,523.71
346.47,523.89
346.92,524.49
347.36,525.56
347.80,527.09
348.24,529.07
348.68,531.40
349.13,533.99
349.57,536.67
350.01,539.29
350.45,541.68
350.89,543.70
351.34,545.22
351.78,546.17
352.22,546.53
352.66,546.30
353.10,545.56
353.54,544.40
353.99,542.91
354.43,541.23
354.87,539.44
355.31,537.64
355.75,535.89
356.19,534.21
356.63,532.61
357.08,531.09
357.52,529.62
357.96,528.18
358.40,526.78
358.84,525.40
359.28,524.06
359.72,522.80
360.16,521.67
360.60,520.70
361.05,519.96
361.49,519.49
361.93,519.30
362.37,519.42
362.81,519.82
363.25,520.47
363.69,521.34
364.13,522.37
364.57,523.51
365.01,524.73
365.45,526.01
365.89,527.34
366.33,528.74
366.78,530.26
367.22,531.91
367.66,533.76
368.10,535.81
368.54,538.09
368.98,540.55
369.42,543.16
369.86,545.82
370.30,548.43
370.74,550.88
371.18,553.06
371.62,554.88
372.06,556.28
372.50,557.24
372.94,557.78
373.38,557.96
373.82,557.86
374.26,557.61
374.70,557.32
375.14,557.11
375.58,557.09
376.02,557.34
376.46,557.91
376.90,558.81
377.34,560.02
377.78,561.49
378.21,563.13
378.65,564.82
379.09,566.46
379.53,567.92
379.97,569.10
380.41,569.90
380.85,570.28
381.29,570.22
381.73,569.77
382.17,568.98
382.61,567.96
383.05,566.80
383.49,565.62
383.93,564.52
384.36,563.59
384.80,562.89
385.24,562.45
385.68,562.28
386.12,562.36
386.56,562.67
387.00,563.19
387.44,563.86
387.87,564.66
388.31,565.54
388.75,566.46
389.19,567.40
389.63,568.31
390.07,569.20
390.51,570.04
390.94,570.84
391.38,571.61
391.82,572.37
392.26,573.15
392.70,573.95
393.14,574.80
393.57,575.68
394.01,576.60
394.45,577.51
394.89,578.41
395.33,579.27
395.76,580.08
396.20,580.85
396.64,581.60
397.08,582.39
397.52,583.26
397.95,584.29
398.39,585.55
398.83,587.10
399.27,589.00
399.70,591.29
400.14,593.99
400.58,597.12
401.02,600.68
401.45,604.67
401.89,609.06
402.33,613.83
402.77,618.92
403.20,624.28
403.64,629.83
404.08,635.48
404.52,641.16
404.95,646.79
405.39,652.32
405.83,657.71
406.26,662.99
406.70,668.19
407.14,673.39
407.58,678.68
408.01,684.18
408.45,689.97
408.89,696.13
409.32,702.70
409.76,709.66
410.20,716.97
410.63,724.56
411.07,732.32
411.51,740.12
411.94,747.85
412.38,755.38
412.82,762.62
413.25,769.52
413.69,776.04
414.12,782.17
414.56,787.96
415.00,793.45
415.43,798.74
415.87,803.89
416.31,809.02
416.74,814.20
417.18,819.53
417.61,825.06
418.05,830.85
418.49,836.91
418.92,843.26
419.36,849.86
419.79,856.69
420.23,863.70
420.67,870.84
421.10,878.05
421.54,885.29
421.97,892.55
422.41,899.82
422.84,907.13
423.28,914.54
423.71,922.13
424.15,929.98
424.59,938.19
425.02,946.81
425.46,955.90
425.89,965.44
426.33,975.39
426.76,985.66
427.20,996.14
427.63,1006.68
428.07,1017.15
428.50,1027.41
428.94,1037.36
429.37,1046.91
429.81,1056.02
430.24,1064.68
430.68,1072.88
431.11,1080.66
431.55,1088.05
431.98,1095.12
432.42,1101.92
432.85,1108.52
433.28,1115.02
433.72,1121.50
434.15,1128.04
434.59,1134.71
435.02,1141.57
435.46,1148.66
435.89,1155.98
436.33,1163.50
436.76,1171.19
437.19,1178.95
437.63,1186.73
438.06,1194.44
438.50,1202.03
438.93,1209.46
439.37,1216.70
439.80,1223.77
440.23,1230.70
440.67,1237.51
441.10,1244.27
441.53,1251.01
441.97,1257.75
442.40,1264.52
442.84,1271.32
443.27,1278.12
443.70,1284.90
444.14,1291.64
444.57,1298.29
445.00,1304.84
445.44,1311.29
445.87,1317.66
446.30,1324.00
446.74,1330.39
447.17,1336.92
447.60,1343.70
448.04,1350.84
448.47,1358.44
448.90,1366.55
449.34,1375.19
449.77,1384.35
450.20,1393.93
450.64,1403.82
451.07,1413.89
451.50,1424.02
451.93,1434.08
452.37,1444.00
452.80,1453.78
453.23,1463.44
453.67,1473.08
454.10,1482.81
454.53,1492.77
454.96,1503.10
455.40,1513.91
455.83,1525.27
456.26,1537.23
456.69,1549.78
457.13,1562.90
457.56,1576.55
457.99,1590.64
458.42,1605.11
458.86,1619.87
459.29,1634.86
459.72,1649.98
460.15,1665.16
460.58,1680.30
461.02,1695.33
461.45,1710.15
461.88,1724.67
462.31,1738.81
462.74,1752.50
463.18,1765.66
463.61,1778.25
464.04,1790.27
464.47,1801.74
464.90,1812.75
465.33,1823.45
465.77,1834.04
466.20,1844.77
466.63,1855.94
467.06,1867.85
467.49,1880.82
467.92,1895.07
468.35,1910.80
468.78,1928.11
469.22,1947.00
469.65,1967.38
470.08,1989.11
470.51,2012.00
470.94,2035.86
471.37,2060.55
471.80,2085.97
472.23,2112.13
472.66,2139.09
473.10,2166.97
473.53,2195.94
473.96,2226.10
474.39,2257.54
474.82,2290.23
475.25,2324.03
475.68,2358.72
476.11,2393.97
476.54,2429.44
476.97,2464.78
477.40,2499.69
477.83,2533.95
478.26,2567.43
478.69,2600.08
479.12,2631.95
479.55,2663.09
479.98,2693.60
480.41,2723.58
480.84,2753.10
481.27,2782.23
481.70,2811.06
482.13,2839.66
482.56,2868.15
482.99,2896.68
483.42,2925.44
483.85,2954.67
484.28,2984.66
484.71,3015.72
485.14,3048.17
485.57,3082.30
486.00,3118.36
486.43,3156.50
486.86,3196.71
487.29,3238.84
487.72,3282.55
488.15,3327.33
488.58,3372.56
489.01,3417.53
489.44,3461.56
489.87,3504.03
490.30,3544.46
490.72,3582.55
491.15,3618.14
491.58,3651.21
492.01,3681.83
492.44,3710.07
492.87,3735.98
493.30,3759.60
493.73,3780.93
494.16,3799.98
494.59,3816.84
495.01,3831.70
495.44,3844.88
495.87,3856.85
496.30,3868.18
496.73,3879.49
497.16,3891.36
497.59,3904.34
498.01,3918.84
498.44,3935.13
498.87,3953.39
499.30,3973.68
499.73,3995.99
500.16,4020.25
500.58,4046.38
501.01,4074.21
501.44,4103.55
501.87,4134.13
502.30,4165.63
502.72,4197.69
503.15,4229.97
503.58,4262.18
504.01,4294.13
504.44,4325.74
504.86,4357.01
505.29,4388.00
505.72,4418.78
506.15,4449.29
506.57,4479.36
507.00,4508.63
507.43,4536.60
507.86,4562.69
508.28,4586.34
508.71,4607.13
509.14,4624.88
509.57,4639.68
509.99,4651.92
510.42,4662.21
510.85,4671.28
511.27,4679.84
511.70,4688.44
512.13,4697.41
512.56,4706.78
512.98,4716.33
513.41,4725.68
513.84,4734.40
514.26,4742.15
514.69,4748.78
515.12,4754.40
515.54,4759.36
515.97,4764.19
516.40,4769.54
516.82,4776.00
517.25,4784.03
517.68,4793.90
518.10,4805.67
518.53,4819.23
518.95,4834.38
519.38,4850.92
519.81,4868.77
520.23,4887.97
520.66,4908.69
521.09,4931.21
521.51,4955.79
521.94,4982.57
522.36,5011.47
522.79,5042.18
523.22,5074.09
523.64,5106.44
524.07,5138.37
524.49,5169.10
524.92,5198.06
525.34,5224.96
525.77,5249.85
526.20,5273.07
526.62,5295.11
527.05,5316.51
527.47,5337.65
527.90,5358.64
528.32,5379.24
528.75,5398.86
529.17,5416.67
529.60,5431.70
530.02,5443.09
530.45,5450.21
530.87,5452.84
531.30,5451.25
531.72,5446.11
532.15,5438.46
532.57,5429.52
533.00,5420.44
533.42,5412.22
533.85,5405.45
534.27,5400.33
534.70,5396.65
535.12,5393.92
535.55,5391.48
535.97,5388.72
536.40,5385.24
536.82,5380.91
537.25,5375.98
537.67,5370.95
538.09,5366.53
538.52,5363.44
538.94,5362.27
539.37,5363.35
539.79,5366.64
540.22,5371.81
540.64,5378.23
541.06,5385.20
541.49,5392.04
541.91,5398.33
542.34,5403.97
542.76,5409.31
543.18,5415.04
543.61,5422.17
544.03,5431.81
544.46,5444.98
544.88,5462.44
545.30,5484.46
545.73,5510.83
546.15,5540.78
546.57,5573.10
547.00,5606.32
547.42,5638.92
547.84,5669.53
548.27,5697.18
548.69,5721.39
549.11,5742.27
549.54,5760.41
549.96,5776.75
550.38,5792.40
550.81,5808.36
551.23,5825.31
551.65,5843.45
552.07,5862.39
552.50,5881.20
552.92,5898.53
553.34,5912.83
553.77,5922.61
554.19,5926.71
554.61,5924.53
555.03,5916.13
555.46,5902.29
555.88,5884.41
556.30,5864.28
556.72,5843.87
557.15,5825.02
557.57,5809.15
557.99,5797.11
558.41,5789.02
558.84,5784.34
559.26,5781.93
559.68,5780.32
560.10,5777.90
560.52,5773.23
560.95,5765.29
561.37,5753.61
561.79,5738.40
562.21,5720.51
562.63,5701.32
563.06,5682.53
563.48,5665.93
563.90,5653.13
564.32,5645.37
564.74,5643.30
565.16,5646.95
565.58,5655.76
566.01,5668.68
566.43,5684.39
566.85,5701.53
567.27,5718.97
567.69,5735.96
568.11,5752.28
568.53,5768.29
568.96,5784.80
569.38,5802.94
569.80,5823.91
570.22,5848.72
570.64,5877.94
571.06,5911.57
571.48,5948.93
571.90,5988.69
572.32,6028.99
572.74,6067.73
573.16,6102.78
573.58,6132.28
574.01,6154.96
574.43,6170.29
574.85,6178.57
575.27,6180.94
575.69,6179.24
576.11,6175.78
576.53,6173.04
576.95,6173.37
577.37,6178.64
577.79,6190.06
578.21,6207.92
578.63,6231.62
579.05,6259.66
579.47,6289.84
579.89,6319.51
580.31,6345.91
580.73,6366.46
581.15,6379.11
581.57,6382.56
581.99,6376.49
582.41,6361.53
582.83,6339.23
583.25,6311.87
583.67,6282.21
584.09,6253.09
584.51,6227.18
584.93,6206.59
585.34,6192.66
585.76,6185.78
586.18,6185.44
586.60,6190.25
587.02,6198.16
587.44,6206.81
587.86,6213.80
588.28,6217.02
588.70,6215.02
589.12,6207.13
589.54,6193.64
589.95,6175.74
590.37,6155.43
590.79,6135.27
591.21,6118.10
591.63,6106.68
592.05,6103.36
592.47,6109.85
592.89,6126.95
593.30,6154.51
593.72,6191.45
594.14,6235.88
594.56,6285.34
594.98,6337.13
595.40,6388.59
595.81,6437.47
596.23,6482.12
596.65,6521.73
597.07,6556.36
597.49,6586.90
597.90,6614.93
598.32,6642.46
598.74,6671.65
599.16,6704.51
599.58,6742.56
599.99,6786.66
600.41,6836.83
600.83,6892.20
601.25,6951.09
601.66,7011.21
602.08,7069.85
602.50,7124.24
602.92,7171.82
603.33,7210.57
603.75,7239.25
604.17,7257.50
604.59,7265.91
605.00,7266.00
605.42,7259.99
605.84,7250.61
606.25,7240.80
606.67,7233.42
607.09,7230.94
607.51,7235.23
607.92,7247.36
608.34,7267.56
608.76,7295.15
609.17,7328.69
609.59,7366.13
610.01,7404.97
610.42,7442.58
610.84,7476.44
611.26,7504.35
611.67,7524.70
612.09,7536.62
612.51,7540.02
612.92,7535.65
613.34,7525.01
613.75,7510.15
614.17,7493.51
614.59,7477.65
615.00,7464.95
615.42,7457.42
615.83,7456.46
616.25,7462.72
616.67,7476.11
617.08,7495.75
617.50,7520.10
617.91,7547.17
618.33,7574.66
618.75,7600.21
619.16,7621.62
619.58,7637.02
619.99,7645.09
620.41,7645.07
620.82,7636.90
621.24,7621.19
621.65,7599.16
622.07,7572.55
622.48,7543.50
622.90,7514.32
623.31,7487.36
623.73,7464.78
624.14,7448.34
624.56,7439.30
624.97,7438.26
625.39,7445.13
625.80,7459.15
626.22,7478.98
626.63,7502.81
627.05,7528.58
627.46,7554.19
627.88,7577.69
628.29,7597.51
628.71,7612.54
629.12,7622.31
629.54,7626.93
629.95,7627.12
630.37,7624.07
630.78,7619.33
631.19,7614.65
631.61,7611.79
632.02,7612.36
632.44,7617.65
632.85,7628.54
633.26,7645.41
633.68,7668.13
634.09,7696.05
634.51,7728.08
634.92,7762.80
635.33,7798.58
635.75,7833.73
636.16,7866.66
636.57,7896.01
636.99,7920.80
637.40,7940.46
637.82,7954.91
638.23,7964.55
638.64,7970.21
639.06,7973.10
639.47,7974.66
639.88,7976.46
640.30,7980.09
640.71,7986.99
641.12,7998.40
641.53,8015.22
641.95,8037.99
642.36,8066.83
642.77,8101.42
643.19,8141.07
643.60,8184.72
644.01,8231.04
644.42,8278.46
644.84,8325.38
645.25,8370.16
645.66,8411.37
646.08,8447.83
646.49,8478.74
646.90,8503.80
647.31,8523.22
647.73,8537.77
648.14,8548.69
648.55,8557.64
648.96,8566.51
649.37,8577.29
649.79,8591.85
650.20,8611.80
650.61,8638.28
651.02,8671.89
651.43,8712.62
651.85,8759.85
652.26,8812.41
652.67,8868.67
653.08,8926.70
653.49,8984.42
653.90,9039.77
654.32,9090.85
654.73,9136.11
655.14,9174.39
655.55,9205.04
655.96,9227.93
656.37,9243.44
656.78,9252.39
657.20,9256.01
657.61,9255.78
658.02,9253.34
658.43,9250.40
658.84,9248.60
659.25,9249.40
659.66,9254.04
660.07,9263.47
660.48,9278.26
660.90,9298.62
661.31,9324.39
661.72,9355.03
662.13,9389.62
662.54,9426.98
662.95,9465.67
663.36,9504.11
663.77,9540.66
664.18,9573.76
664.59,9602.02
665.00,9624.32
665.41,9639.96
665.82,9648.62
666.23,9650.50
666.64,9646.21
667.05,9636.80
667.46,9623.64
667.87,9608.32
668.28,9592.57
668.69,9578.08
669.10,9566.44
669.51,9559.02
669.92,9556.88
670.33,9560.74
670.74,9570.94
671.15,9587.39
671.56,9609.64
671.97,9636.85
672.38,9667.89
672.79,9701.37
673.20,9735.77
673.61,9769.46
674.02,9800.88
674.42,9828.57
674.83,9851.32
675.24,9868.17
675.65,9878.53
676.06,9882.16
676.47,9879.21
676.88,9870.22
677.29,9856.06
677.70,9837.93
678.11,9817.30
678.51,9795.78
678.92,9775.12
679.33,9757.03
679.74,9743.10
680.15,9734.69
680.56,9732.83
680.97,9738.10
681.37,9750.63
681.78,9770.07
682.19,9795.60
682.60,9826.02
683.01,9859.81
683.42,9895.31
683.82,9930.79
684.23,9964.61
684.64,9995.28
685.05,10021.61
685.45,10042.71
685.86,10058.07
686.27,10067.52
686.68,10071.29
687.09,10069.90
687.49,10064.17
687.90,10055.14
688.31,10044.03
688.72,10032.15
689.12,10020.84
689.53,10011.39
689.94,10005.00
690.35,10002.67
690.75,10005.17
691.16,10013.00
691.57,10026.34
691.97,10045.07
692.38,10068.76
692.79,10096.71
693.20,10128.01
693.60,10161.59
694.01,10196.32
694.42,10231.01
694.82,10264.55
695.23,10295.91
695.64,10324.18
696.04,10348.63
696.45,10368.73
696.86,10384.17
697.26,10394.87
697.67,10401.05
698.07,10403.20
698.48,10402.09
698.89,10398.74
699.29,10394.38
699.70,10390.37
700.11,10388.12
700.51,10388.96
700.92,10394.05
701.32,10404.31
701.73,10420.35
702.14,10442.40
702.54,10470.35
702.95,10503.74
703.35,10541.83
703.76,10583.64
704.16,10628.04
704.57,10673.79
704.97,10719.61
705.38,10764.24
705.79,10806.45
706.19,10845.11
706.60,10879.20
707.00,10907.87
707.41,10930.45
707.81,10946.52
708.22,10955.92
708.62,10958.82
709.03,10955.71
709.43,10947.39
709.84,10934.98
710.24,10919.85
710.65,10903.51
711.05,10887.57
711.46,10873.59
711.86,10863.01
712.27,10856.99
712.67,10856.42
713.07,10861.77
713.48,10873.16
713.88,10890.31
714.29,10912.61
714.69,10939.16
715.10,10968.86
715.50,11000.48
715.90,11032.74
716.31,11064.37
716.71,11094.19
717.12,11121.11
717.52,11144.19
717.92,11162.64
718.33,11175.82
718.73,11183.24
719.14,11184.58
719.54,11179.65
719.94,11168.45
720.35,11151.13
720.75,11128.02
721.15,11099.68
721.56,11066.86
721.96,11030.53
722.36,10991.88
722.77,10952.23
723.17,10913.04
723.57,10875.82
723.98,10842.00
724.38,10812.89
724.78,10789.54
725.19,10772.71
725.59,10762.77
725.99,10759.69
726.39,10763.08
726.80,10772.16
727.20,10785.90
727.60,10803.05
728.00,10822.25
728.41,10842.09
728.81,10861.23
729.21,10878.42
729.61,10892.53
730.02,10902.61
730.42,10907.88
730.82,10907.72
731.22,10901.66
731.63,10889.41
732.03,10870.86
732.43,10846.07
732.83,10815.32
733.23,10779.12
733.64,10738.21
734.04,10693.60
734.44,10646.51
734.84,10598.36
735.24,10550.70
735.64,10505.12
736.05,10463.15
736.45,10426.21
