wavelength,counts
188.65,245.57
189.10,245.57
189.56,245.57
190.01,245.57
190.47,245.57
190.92,274.62
191.37,286.65
191.83,300.26
192.28,315.21
192.74,331.23
193.19,348.00
193.64,365.15
194.10,383.09
194.55,401.72
195.01,420.97
195.46,440.76
195.91,461.00
196.37,481.57
196.82,502.32
197.27,523.06
197.73,543.57
198.18,563.62
198.63,582.94
199.09,601.29
199.54,618.43
199.99,634.16
200.45,648.37
200.90,660.99
201.35,672.02
201.81,681.56
202.26,689.73
202.71,696.71
203.17,702.69
203.62,707.87
204.07,712.40
204.53,716.42
204.98,720.03
205.43,723.28
205.89,726.21
206.34,728.83
206.79,731.13
207.25,733.13
207.70,734.81
208.15,736.19
208.60,737.27
209.06,738.04
209.51,738.52
209.96,738.68
210.41,738.53
210.87,738.07
211.32,737.31
211.77,736.29
212.23,735.05
212.68,733.67
213.13,732.23
213.58,730.79
214.04,729.43
214.49,728.17
214.94,727.03
215.39,725.98
215.84,725.00
216.30,724.03
216.75,723.02
217.20,721.96
217.65,720.85
218.11,719.74
218.56,718.68
219.01,717.77
219.46,717.08
219.91,716.69
220.37,716.62
220.82,716.90
221.27,717.49
221.72,718.32
222.17,719.35
222.63,720.48
223.08,721.66
223.53,722.84
223.98,724.00
224.43,725.12
224.88,726.21
225.34,727.27
225.79,728.29
226.24,729.26
226.69,730.14
227.14,730.89
227.59,731.47
228.04,731.85
228.50,732.02
228.95,731.96
229.40,731.72
229.85,731.32
230.30,730.82
230.75,730.27
231.20,729.70
231.66,729.15
232.11,728.63
232.56,728.16
233.01,727.73
233.46,727.34
233.91,726.99
234.36,726.68
234.81,726.40
235.26,726.16
235.71,725.92
236.17,725.66
236.62,725.35
237.07,724.94
237.52,724.37
237.97,723.64
238.42,722.71
238.87,721.62
239.32,720.41
239.77,719.17
240.22,717.99
240.67,716.99
241.12,716.27
241.57,715.89
242.02,715.90
242.47,716.31
242.92,717.08
243.37,718.13
243.82,719.35
244.27,720.64
244.72,721.86
245.18,722.89
245.63,723.65
246.08,724.07
246.53,724.10
246.98,723.75
247.43,723.07
247.88,722.11
248.33,720.97
248.78,719.77
249.23,718.63
249.68,717.65
250.12,716.94
250.57,716.57
251.02,716.59
251.47,717.00
251.92,717.79
252.37,718.91
252.82,720.30
253.27,721.88
253.72,723.58
254.17,725.30
254.62,726.99
255.07,728.61
255.52,730.10
255.97,731.48
256.42,732.75
256.87,733.92
257.32,735.03
257.77,736.11
258.22,737.15
258.66,738.18
259.11,739.15
259.56,740.05
260.01,740.81
260.46,741.41
260.91,741.80
261.36,741.97
261.81,741.94
262.26,741.73
262.71,741.41
263.15,741.06
263.60,740.75
264.05,740.55
264.50,740.51
264.95,740.66
265.40,741.01
265.85,741.55
266.30,742.26
266.74,743.08
267.19,743.97
267.64,744.86
268.09,745.68
268.54,746.35
268.99,746.79
269.43,746.90
269.88,746.62
270.33,745.88
270.78,744.64
271.23,742.89
271.68,740.68
272.12,738.08
272.57,735.20
273.02,732.20
273.47,729.25
273.92,726.55
274.36,724.27
274.81,722.60
275.26,721.67
275.71,721.55
276.16,722.28
276.60,723.81
277.05,726.04
277.50,728.80
277.95,731.90
278.39,735.10
278.84,738.18
279.29,740.94
279.74,743.20
280.19,744.83
280.63,745.76
281.08,745.99
281.53,745.55
281.98,744.51
282.42,743.00
282.87,741.12
283.32,739.02
283.76,736.83
284.21,734.66
284.66,732.59
285.11,730.70
285.55,729.04
286.00,727.64
286.45,726.51
286.89,725.69
287.34,725.20
287.79,725.04
288.23,725.24
288.68,725.79
289.13,726.66
289.58,727.79
290.02,729.08
290.47,730.40
290.92,731.60
291.36,732.54
291.81,733.09
292.26,733.14
292.70,732.65
293.15,731.64
293.60,730.17
294.04,728.34
294.49,726.28
294.93,724.10
295.38,721.92
295.83,719.81
296.27,717.82
296.72,715.98
297.17,714.31
297.61,712.79
298.06,711.44
298.50,710.28
298.95,709.32
299.40,708.60
299.84,708.16
300.29,708.04
300.73,708.26
301.18,708.84
301.63,709.80
302.07,711.10
302.52,712.71
302.96,714.58
303.41,716.62
303.85,718.74
304.30,720.84
304.75,722.79
305.19,724.50
305.64,725.90
306.08,726.93
306.53,727.60
306.97,727.92
307.42,727.98
307.86,727.86
308.31,727.65
308.75,727.43
309.20,727.27
309.65,727.20
310.09,727.24
310.54,727.36
310.98,727.56
311.43,727.80
311.87,728.06
312.32,728.35
312.76,728.66
313.21,729.01
313.65,729.43
314.10,729.92
314.54,730.49
314.99,731.14
315.43,731.86
315.87,732.62
316.32,733.39
316.76,734.14
317.21,734.82
317.65,735.42
318.10,735.90
318.54,736.24
318.99,736.44
319.43,736.52
319.88,736.52
320.32,736.48
320.76,736.48
321.21,736.61
321.65,736.96
322.10,737.60
322.54,738.60
322.99,739.97
323.43,741.73
323.87,743.81
324.32,746.14
324.76,748.61
325.21,751.10
325.65,753.47
326.09,755.62
326.54,757.46
326.98,758.91
327.42,759.96
327.87,760.59
328.31,760.86
328.76,760.81
329.20,760.50
329.64,760.02
330.09,759.43
330.53,758.81
330.97,758.22
331.42,757.71
331.86,757.31
332.30,757.05
332.75,756.93
333.19,756.94
333.63,757.05
334.08,757.24
334.52,757.44
334.96,757.63
335.41,757.74
335.85,757.75
336.29,757.63
336.74,757.37
337.18,756.97
337.62,756.46
338.06,755.84
338.51,755.15
338.95,754.40
339.39,753.62
339.84,752.81
340.28,751.98
340.72,751.13
341.16,750.27
341.61,749.39
342.05,748.51
342.49,747.62
342.93,746.75
343.38,745.93
343.82,745.19
344.26,744.56
344.70,744.11
345.15,743.87
345.59,743.90
346.03,744.23
346.47,744.86
346.92,745.77
347.36,746.91
347.80,748.19
348.24,749.49
348.68,750.70
349.13,751.69
349.57,752.37
350.01,752.69
350.45,752.65
350.89,752.30
351.34,751.73
351.78,751.05
352.22,750.40
352.66,749.89
353.10,749.63
353.54,749.65
353.99,749.97
354.43,750.56
354.87,751.36
355.31,752.30
355.75,753.27
356.19,754.22
356.63,755.06
357.08,755.75
357.52,756.26
357.96,756.57
358.40,756.68
358.84,756.59
359.28,756.34
359.72,755.94
360.16,755.43
360.60,754.85
361.05,754.26
361.49,753.68
361.93,753.18
362.37,752.77
362.81,752.50
363.25,752.38
363.69,752.41
364.13,752.61
364.57,752.97
365.01,753.46
365.45,754.10
365.89,754.87
366.33,755.77
366.78,756.80
367.22,757.98
367.66,759.32
368.10,760.83
368.54,762.51
368.98,764.33
369.42,766.27
369.86,768.26
370.30,770.22
370.74,772.05
371.18,773.67
371.62,774.98
372.06,775.92
372.50,776.47
372.94,776.62
373.38,776.40
373.82,775.86
374.26,775.08
374.70,774.14
375.14,773.12
375.58,772.10
376.02,771.19
376.46,770.46
376.90,770.01
377.34,769.93
377.78,770.31
378.21,771.24
378.65,772.76
379.09,774.91
379.53,777.67
379.97,780.98
380.41,784.75
380.85,788.85
381.29,793.14
381.73,797.45
382.17,801.64
382.61,805.59
383.05,809.20
383.49,812.41
383.93,815.20
384.36,817.58
384.80,819.60
385.24,821.32
385.68,822.80
386.12,824.09
386.56,825.25
387.00,826.30
387.44,827.26
387.87,828.12
388.31,828.88
388.75,829.54
389.19,830.10
389.63,830.59
390.07,831.06
390.51,831.59
390.94,832.27
391.38,833.18
391.82,834.42
392.26,836.03
392.70,838.06
393.14,840.50
393.57,843.32
394.01,846.45
394.45,849.82
394.89,853.35
395.33,856.94
395.76,860.53
396.20,864.07
396.64,867.55
397.08,870.95
397.52,874.27
397.95,877.53
398.39,880.74
398.83,883.88
399.27,886.97
399.70,889.97
400.14,892.88
400.58,895.69
401.02,898.41
401.45,901.09
401.89,903.78
402.33,906.57
402.77,909.56
403.20,912.84
403.64,916.52
404.08,920.66
404.52,925.32
404.95,930.52
405.39,936.25
405.83,942.46
406.26,949.09
406.70,956.06
407.14,963.26
407.58,970.58
408.01,977.89
408.45,985.09
408.89,992.08
409.32,998.83
409.76,1005.31
410.20,1011.56
410.63,1017.67
411.07,1023.76
411.51,1029.97
411.94,1036.44
412.38,1043.31
412.82,1050.65
413.25,1058.51
413.69,1066.90
414.12,1075.75
414.56,1085.00
415.00,1094.53
415.43,1104.23
415.87,1113.97
416.31,1123.64
416.74,1133.16
417.18,1142.42
417.61,1151.40
418.05,1160.06
418.49,1168.43
418.92,1176.54
419.36,1184.46
419.79,1192.27
420.23,1200.03
420.67,1207.81
421.10,1215.63
421.54,1223.48
421.97,1231.35
422.41,1239.16
422.84,1246.88
423.28,1254.45
423.71,1261.87
424.15,1269.13
424.59,1276.28
425.02,1283.40
425.46,1290.59
425.89,1297.94
426.33,1305.56
426.76,1313.55
427.20,1322.00
427.63,1331.00
428.07,1340.60
428.50,1350.82
428.94,1361.67
429.37,1373.09
429.81,1384.98
430.24,1397.18
430.68,1409.50
431.11,1421.72
431.55,1433.64
431.98,1445.09
432.42,1455.94
432.85,1466.15
433.28,1475.78
433.72,1484.94
434.15,1493.78
434.59,1502.50
435.02,1511.29
435.46,1520.27
435.89,1529.53
436.33,1539.10
436.76,1548.92
437.19,1558.91
437.63,1568.98
438.06,1579.02
438.50,1588.96
438.93,1598.78
439.37,1608.48
439.80,1618.12
440.23,1627.76
440.67,1637.48
441.10,1647.35
441.53,1657.39
441.97,1667.64
442.40,1678.05
442.84,1688.59
443.27,1699.20
443.70,1709.78
444.14,1720.26
444.57,1730.55
445.00,1740.55
445.44,1750.19
445.87,1759.37
446.30,1768.05
446.74,1776.17
447.17,1783.75
447.60,1790.84
448.04,1797.56
448.47,1804.07
448.90,1810.57
449.34,1817.27
449.77,1824.37
450.20,1832.03
450.64,1840.33
451.07,1849.28
451.50,1858.84
451.93,1868.89
452.37,1879.31
452.80,1890.01
453.23,1900.93
453.67,1912.08
454.10,1923.56
454.53,1935.51
454.96,1948.10
455.40,1961.50
455.83,1975.85
456.26,1991.20
456.69,2007.54
457.13,2024.76
457.56,2042.70
457.99,2061.15
458.42,2079.88
458.86,2098.71
459.29,2117.48
459.72,2136.05
460.15,2154.36
460.58,2172.34
461.02,2189.94
461.45,2207.09
461.88,2223.73
462.31,2239.76
462.74,2255.11
463.18,2269.75
463.61,2283.70
464.04,2297.08
464.47,2310.11
464.90,2323.11
465.33,2336.45
465.77,2350.55
466.20,2365.77
466.63,2382.45
467.06,2400.78
467.49,2420.85
467.92,2442.60
468.35,2465.90
468.78,2490.56
469.22,2516.39
469.65,2543.25
470.08,2571.08
470.51,2599.95
470.94,2630.01
471.37,2661.45
471.80,2694.47
472.23,2729.19
472.66,2765.62
473.10,2803.59
473.53,2842.78
473.96,2882.72
474.39,2922.88
474.82,2962.73
475.25,3001.85
475.68,3040.02
476.11,3077.26
476.54,3113.86
476.97,3150.32
477.40,3187.32
477.83,3225.56
478.26,3265.65
478.69,3308.03
479.12,3352.82
479.55,3399.83
479.98,3448.53
480.41,3498.18
480.84,3547.91
481.27,3596.88
481.70,3644.40
482.13,3690.10
482.56,3733.97
482.99,3776.35
483.42,3817.93
483.85,3859.55
484.28,3902.10
484.71,3946.32
485.14,3992.64
485.57,4041.12
486.00,4091.34
486.43,4142.48
486.86,4193.47
487.29,4243.07
487.72,4290.16
488.15,4333.87
488.58,4373.76
489.01,4409.90
489.44,4442.85
489.87,4473.60
490.30,4503.39
490.72,4533.53
491.15,4565.13
491.58,4598.99
492.01,4635.38
492.44,4674.09
492.87,4714.37
493.30,4755.18
493.73,4795.27
494.16,4833.49
494.59,4868.98
495.01,4901.32
495.44,4930.66
495.87,4957.67
496.30,4983.47
496.73,5009.45
497.16,5037.02
497.59,5067.38
498.01,5101.31
498.44,5139.02
498.87,5180.06
499.30,5223.44
499.73,5267.68
500.16,5311.09
500.58,5351.97
501.01,5388.90
501.44,5420.93
501.87,5447.74
502.30,5469.68
502.72,5487.74
503.15,5503.38
503.58,5518.33
504.01,5534.34
504.44,5552.91
504.86,5575.06
505.29,5601.23
505.72,5631.15
506.15,5663.94
506.57,5698.24
507.00,5732.36
507.43,5764.61
507.86,5793.50
508.28,5817.99
508.71,5837.63
509.14,5852.62
509.57,5863.82
509.99,5872.60
510.42,5880.70
510.85,5889.92
511.27,5901.97
511.70,5918.16
512.13,5939.27
512.56,5965.43
512.98,5996.10
513.41,6030.16
513.84,6066.07
514.26,6102.02
514.69,6136.24
515.12,6167.20
515.54,6193.81
515.97,6215.60
516.40,6232.71
516.82,6245.95
517.25,6256.63
517.68,6266.38
518.10,6277.00
518.53,6290.12
518.95,6307.06
519.38,6328.63
519.81,6355.00
520.23,6385.69
520.66,6419.62
521.09,6455.20
521.51,6490.56
521.94,6523.77
522.36,6553.01
522.79,6576.88
523.22,6594.50
523.64,6605.66
524.07,6610.85
524.49,6611.17
524.92,6608.24
525.34,6603.98
525.77,6600.39
526.20,6599.28
526.62,6602.09
527.05,6609.69
527.47,6622.29
527.90,6639.43
528.32,6660.05
528.75,6682.63
529.17,6705.34
529.60,6726.35
530.02,6743.97
530.45,6756.93
530.87,6764.49
531.30,6766.58
531.72,6763.81
532.15,6757.43
532.57,6749.19
533.00,6741.16
533.42,6735.46
533.85,6734.06
534.27,6738.52
534.70,6749.75
535.12,6767.98
535.55,6792.63
535.97,6822.43
536.40,6855.53
536.82,6889.72
537.25,6922.71
537.67,6952.33
538.09,6976.83
538.52,6995.04
538.94,7006.51
539.37,7011.50
539.79,7011.01
540.22,7006.57
540.64,7000.11
541.06,6993.74
541.49,6989.48
541.91,6989.05
542.34,6993.67
542.76,7003.94
543.18,7019.76
543.61,7040.34
544.03,7064.24
544.46,7089.61
544.88,7114.27
545.30,7136.06
545.73,7152.99
546.15,7163.50
546.57,7166.65
547.00,7162.19
547.42,7150.66
547.84,7133.30
548.27,7111.95
548.69,7088.91
549.11,7066.65
549.54,7047.65
549.96,7034.05
550.38,7027.56
550.81,7029.17
551.23,7039.15
551.65,7056.96
552.07,7081.32
552.50,7110.32
552.92,7141.66
553.34,7172.78
553.77,7201.18
554.19,7224.64
554.61,7241.41
555.03,7250.41
555.46,7251.30
555.88,7244.55
556.30,7231.36
556.72,7213.59
557.15,7193.55
557.57,7173.83
557.99,7157.06
558.41,7145.63
558.84,7141.52
559.26,7146.08
559.68,7159.93
560.10,7182.84
560.52,7213.82
560.95,7251.12
561.37,7292.45
561.79,7335.14
562.21,7376.45
562.63,7413.75
563.06,7444.86
563.48,7468.19
563.90,7482.98
564.32,7489.30
564.74,7488.10
565.16,7481.14
565.58,7470.76
566.01,7459.70
566.43,7450.82
566.85,7446.81
567.27,7449.92
567.69,7461.74
568.11,7483.03
568.53,7513.61
568.96,7552.38
569.38,7597.41
569.80,7646.05
570.22,7695.22
570.64,7741.61
571.06,7782.01
571.48,7813.60
571.90,7834.15
572.32,7842.24
572.74,7837.42
573.16,7820.15
573.58,7791.86
574.01,7754.73
574.43,7711.55
574.85,7665.44
575.27,7619.62
575.69,7577.13
576.11,7540.63
576.53,7512.16
576.95,7493.09
577.37,7483.98
577.79,7484.63
578.21,7494.12
578.63,7510.89
579.05,7532.90
579.47,7557.81
579.89,7583.12
580.31,7606.41
580.73,7625.46
581.15,7638.47
581.57,7644.17
581.99,7641.94
582.41,7631.82
582.83,7614.55
583.25,7591.53
583.67,7564.68
584.09,7536.31
584.51,7508.98
584.93,7485.26
585.34,7467.55
585.76,7457.91
586.18,7457.91
586.60,7468.48
587.02,7489.89
587.44,7521.74
587.86,7562.94
588.28,7611.87
588.70,7666.44
589.12,7724.28
589.54,7782.91
589.95,7839.88
590.37,7892.98
590.79,7940.37
591.21,7980.71
591.63,8013.29
592.05,8038.04
592.47,8055.56
592.89,8067.11
593.30,8074.47
593.72,8079.88
594.14,8085.81
594.56,8094.81
594.98,8109.31
595.40,8131.40
595.81,8162.67
596.23,8204.07
596.65,8255.81
597.07,8317.37
597.49,8387.45
597.90,8464.15
598.32,8545.03
598.74,8627.33
599.16,8708.14
599.58,8784.59
599.99,8854.06
600.41,8914.31
600.83,8963.65
601.25,9000.98
601.66,9025.88
602.08,9038.60
602.50,9040.05
602.92,9031.66
603.33,9015.35
603.75,8993.36
604.17,8968.09
604.59,8941.95
605.00,8917.23
605.42,8895.90
605.84,8879.57
606.25,8869.32
606.67,8865.74
607.09,8868.89
607.51,8878.34
607.92,8893.24
608.34,8912.43
608.76,8934.49
609.17,8957.91
609.59,8981.16
610.01,9002.78
610.42,9021.48
610.84,9036.15
611.26,9045.99
611.67,9050.45
612.09,9049.34
612.51,9042.76
612.92,9031.16
613.34,9015.30
613.75,8996.21
614.17,8975.18
614.59,8953.69
615.00,8933.30
615.42,8915.61
615.83,8902.15
616.25,8894.23
616.67,8892.91
617.08,8898.88
617.50,8912.41
617.91,8933.34
618.33,8961.10
618.75,8994.70
619.16,9032.89
619.58,9074.15
619.99,9116.87
620.41,9159.41
620.82,9200.19
621.24,9237.84
621.65,9271.18
622.07,9299.38
622.48,9321.89
622.90,9338.58
623.31,9349.63
623.73,9355.60
624.14,9357.33
624.56,9355.95
624.97,9352.74
625.39,9349.14
625.80,9346.59
626.22,9346.48
626.63,9350.10
627.05,9358.52
627.46,9372.53
627.88,9392.67
628.29,9419.10
628.71,9451.67
629.12,9489.89
629.54,9532.98
629.95,9579.87
630.37,9629.31
630.78,9679.91
631.19,9730.22
631.61,9778.81
632.02,9824.37
632.44,9865.80
632.85,9902.22
633.26,9933.06
633.68,9958.08
634.09,9977.37
634.51,9991.34
634.92,10000.67
635.33,10006.28
635.75,10009.27
636.16,10010.84
636.57,10012.21
636.99,10014.59
637.40,10019.07
637.82,10026.56
638.23,10037.77
638.64,10053.15
639.06,10072.88
639.47,10096.84
639.88,10124.68
640.30,10155.84
640.71,10189.58
641.12,10225.08
641.53,10261.48
641.95,10297.96
642.36,10333.74
642.77,10368.16
643.19,10400.67
643.60,10430.85
644.01,10458.40
644.42,10483.14
644.84,10505.03
645.25,10524.15
645.66,10540.68
646.08,10554.95
646.49,10567.40
646.90,10578.56
647.31,10589.03
647.73,10599.47
648.14,10610.51
648.55,10622.77
648.96,10636.82
649.37,10653.10
649.79,10671.97
650.20,10693.66
650.61,10718.29
651.02,10745.86
651.43,10776.23
651.85,10809.19
652.26,10844.37
652.67,10881.35
653.08,10919.61
653.49,10958.56
653.90,10997.63
654.32,11036.21
654.73,11073.80
655.14,11109.94
655.55,11144.32
655.96,11176.71
656.37,11207.04
656.78,11235.31
657.20,11261.61
657.61,11286.06
658.02,11308.82
658.43,11330.03
658.84,11349.84
659.25,11368.44
659.66,11386.05
660.07,11402.96
660.48,11419.58
660.90,11436.40
661.31,11454.01
661.72,11473.07
662.13,11494.24
662.54,11518.12
662.95,11545.17
663.36,11575.69
663.77,11609.75
664.18,11647.16
664.59,11687.49
665.00,11730.12
665.41,11774.27
665.82,11819.04
666.23,11863.51
666.64,11906.80
667.05,11948.09
667.46,11986.68
667.87,12021.99
668.28,12053.61
668.69,12081.29
669.10,12104.91
669.51,12124.52
669.92,12140.29
670.33,12152.54
670.74,12161.72
671.15,12168.37
671.56,12173.17
671.97,12176.86
672.38,12180.24
672.79,12184.11
673.20,12189.25
673.61,12196.39
674.02,12206.11
674.42,12218.84
674.83,12234.81
675.24,12254.08
675.65,12276.46
676.06,12301.63
676.47,12329.11
676.88,12358.32
677.29,12388.64
677.70,12419.45
678.11,12450.17
678.51,12480.25
678.92,12509.25
679.33,12536.77
679.74,12562.46
680.15,12586.05
680.56,12607.29
680.97,12626.00
681.37,12642.02
681.78,12655.30
682.19,12665.82
682.60,12673.65
683.01,12678.95
683.42,12681.99
683.82,12683.06
684.23,12682.57
684.64,12680.94
685.05,12678.65
685.45,12676.19
685.86,12674.06
686.27,12672.77
686.68,12672.83
687.09,12674.76
687.49,12679.02
687.90,12686.05
688.31,12696.20
688.72,12709.72
689.12,12726.68
689.53,12746.99
689.94,12770.36
690.35,12796.31
690.75,12824.17
691.16,12853.15
691.57,12882.38
691.97,12911.00
692.38,12938.16
692.79,12963.15
693.20,12985.37
693.60,13004.39
694.01,13019.91
694.42,13031.79
694.82,13040.03
695.23,13044.76
695.64,13046.22
696.04,13044.77
696.45,13040.92
696.86,13035.25
697.26,13028.48
697.67,13021.38
698.07,13014.74
698.48,13009.35
698.89,13005.90
699.29,13005.00
699.70,13007.04
700.11,13012.26
700.51,13020.70
700.92,13032.20
701.32,13046.48
701.73,13063.12
702.14,13081.65
702.54,13101.61
702.95,13122.55
703.35,13144.09
703.76,13165.92
704.16,13187.83
704.57,13209.67
704.97,13231.35
705.38,13252.81
705.79,13273.97
706.19,13294.70
706.60,13314.83
707.00,13334.09
707.41,13352.17
707.81,13368.66
708.22,13383.15
708.62,13395.23
709.03,13404.55
709.43,13410.84
709.84,13413.95
710.24,13413.91
710.65,13410.87
711.05,13405.18
711.46,13397.30
711.86,13387.83
712.27,13377.44
712.67,13366.87
713.07,13356.85
713.48,13348.10
713.88,13341.26
714.29,13336.87
714.69,13335.31
715.10,13336.83
715.50,13341.50
715.90,13349.21
716.31,13359.73
716.71,13372.69
717.12,13387.69
717.52,13404.28
717.92,13422.04
718.33,13440.59
718.73,13459.61
719.14,13478.87
719.54,13498.18
719.94,13517.35
720.35,13536.21
720.75,13554.56
721.15,13572.12
721.56,13588.54
721.96,13603.43
722.36,13616.34
722.77,13626.83
723.17,13634.47
723.57,13638.93
723.98,13639.97
724.38,13637.54
724.78,13631.72
725.19,13622.78
725.59,13611.15
725.99,13597.41
726.39,13582.21
726.80,13566.30
727.20,13550.41
727.60,13535.26
728.00,13521.50
728.41,13509.67
728.81,13500.21
729.21,13493.46
729.61,13489.62
730.02,13488.83
730.42,13491.10
730.82,13496.39
731.22,13504.59
731.63,13515.50
732.03,13528.85
