wavelength,counts
188.65,209.80
189.10,209.80
189.56,209.80
190.01,209.80
190.47,209.80
190.92,244.82
191.37,258.90
191.83,274.50
192.28,291.25
192.74,308.74
193.19,326.50
193.64,344.04
194.10,361.84
194.55,379.80
195.01,397.85
195.46,415.98
195.91,434.19
196.37,452.51
196.82,470.95
197.27,489.55
197.73,508.31
198.18,527.24
198.63,546.27
199.09,565.28
199.54,584.13
199.99,602.61
200.45,620.46
200.90,637.44
201.35,653.32
201.81,667.87
202.26,680.96
202.71,692.50
203.17,702.46
203.62,710.90
204.07,717.90
204.53,723.58
204.98,728.08
205.43,731.52
205.89,734.02
206.34,735.68
206.79,736.59
207.25,736.82
207.70,736.46
208.15,735.60
208.60,734.33
209.06,732.76
209.51,730.99
209.96,729.15
210.41,727.31
210.87,725.55
211.32,723.90
211.77,722.38
212.23,720.96
212.68,719.60
213.13,718.25
213.58,716.87
214.04,715.43
214.49,713.92
214.94,712.36
215.39,710.81
215.84,709.35
216.30,708.04
216.75,706.96
217.20,706.18
217.65,705.72
218.11,705.59
218.56,705.74
219.01,706.11
219.46,706.64
219.91,707.23
220.37,707.81
220.82,708.33
221.27,708.77
221.72,709.12
222.17,709.43
222.63,709.72
223.08,710.04
223.53,710.44
223.98,710.94
224.43,711.56
224.88,712.29
225.34,713.10
225.79,713.97
226.24,714.86
226.69,715.74
227.14,716.57
227.59,717.34
228.04,718.04
228.50,718.67
228.95,719.22
229.40,719.70
229.85,720.09
230.30,720.40
230.75,720.59
231.20,720.65
231.66,720.56
232.11,720.29
232.56,719.82
233.01,719.16
233.46,718.31
233.91,717.30
234.36,716.18
234.81,715.01
235.26,713.87
235.71,712.84
236.17,712.02
236.62,711.49
237.07,711.33
237.52,711.60
237.97,712.31
238.42,713.48
238.87,715.03
239.32,716.91
239.77,718.98
240.22,721.10
240.67,723.13
241.12,724.92
241.57,726.34
242.02,727.32
242.47,727.81
242.92,727.81
243.37,727.39
243.82,726.61
244.27,725.59
244.72,724.44
245.18,723.28
245.63,722.19
246.08,721.27
246.53,720.56
246.98,720.10
247.43,719.90
247.88,719.94
248.33,720.22
248.78,720.68
249.23,721.28
249.68,721.96
250.12,722.67
250.57,723.35
251.02,723.95
251.47,724.44
251.92,724.78
252.37,724.99
252.82,725.07
253.27,725.06
253.72,725.01
254.17,724.97
254.62,725.02
255.07,725.22
255.52,725.63
255.97,726.29
256.42,727.24
256.87,728.47
257.32,729.97
257.77,731.67
258.22,733.50
258.66,735.35
259.11,737.11
259.56,738.64
260.01,739.84
260.46,740.60
260.91,740.86
261.36,740.59
261.81,739.79
262.26,738.52
262.71,736.88
263.15,734.97
263.60,732.95
264.05,730.96
264.50,729.14
264.95,727.62
265.40,726.49
265.85,725.80
266.30,725.56
266.74,725.75
267.19,726.31
267.64,727.14
268.09,728.14
268.54,729.20
268.99,730.20
269.43,731.04
269.88,731.66
270.33,732.00
270.78,732.04
271.23,731.77
271.68,731.21
272.12,730.42
272.57,729.43
273.02,728.33
273.47,727.20
273.92,726.12
274.36,725.18
274.81,724.46
275.26,724.03
275.71,723.92
276.16,724.17
276.60,724.75
277.05,725.63
277.50,726.71
277.95,727.90
278.39,729.09
278.84,730.15
279.29,730.99
279.74,731.50
280.19,731.62
280.63,731.33
281.08,730.63
281.53,729.56
281.98,728.19
282.42,726.59
282.87,724.86
283.32,723.06
283.76,721.27
284.21,719.53
284.66,717.89
285.11,716.35
285.55,714.95
286.00,713.71
286.45,712.66
286.89,711.88
287.34,711.43
287.79,711.39
288.23,711.86
288.68,712.89
289.13,714.53
289.58,716.78
290.02,719.60
290.47,722.91
290.92,726.57
291.36,730.45
291.81,734.36
292.26,738.14
292.70,741.61
293.15,744.62
293.60,747.05
294.04,748.80
294.49,749.83
294.93,750.12
295.38,749.72
295.83,748.70
296.27,747.19
296.72,745.36
297.17,743.38
297.61,741.44
298.06,739.72
298.50,738.39
298.95,737.54
299.40,737.25
299.84,737.53
300.29,738.33
300.73,739.58
301.18,741.15
301.63,742.92
302.07,744.75
302.52,746.53
302.96,748.15
303.41,749.54
303.85,750.65
304.30,751.44
304.75,751.89
305.19,751.99
305.64,751.73
306.08,751.12
306.53,750.17
306.97,748.90
307.42,747.36
307.86,745.64
308.31,743.84
308.75,742.06
309.20,740.45
309.65,739.10
310.09,738.10
310.54,737.51
310.98,737.32
311.43,737.47
311.87,737.88
312.32,738.43
312.76,738.97
313.21,739.39
313.65,739.61
314.10,739.58
314.54,739.33
314.99,738.90
315.43,738.42
315.87,738.02
316.32,737.84
316.76,738.01
317.21,738.62
317.65,739.71
318.10,741.28
318.54,743.23
318.99,745.45
319.43,747.77
319.88,750.01
320.32,752.01
320.76,753.60
321.21,754.68
321.65,755.18
322.10,755.08
322.54,754.43
322.99,753.29
323.43,751.77
323.87,749.98
324.32,748.04
324.76,746.07
325.21,744.17
325.65,742.44
326.09,740.95
326.54,739.73
326.98,738.83
327.42,738.24
327.87,737.94
328.31,737.89
328.76,738.03
329.20,738.30
329.64,738.61
330.09,738.93
330.53,739.21
330.97,739.44
331.42,739.64
331.86,739.83
332.30,740.06
332.75,740.38
333.19,740.82
333.63,741.39
334.08,742.08
334.52,742.82
334.96,743.54
335.41,744.14
335.85,744.51
336.29,744.55
336.74,744.18
337.18,743.38
337.62,742.14
338.06,740.53
338.51,738.65
338.95,736.63
339.39,734.62
339.84,732.78
340.28,731.25
340.72,730.13
341.16,729.48
341.61,729.33
342.05,729.62
342.49,730.30
342.93,731.25
343.38,732.36
343.82,733.51
344.26,734.60
344.70,735.54
345.15,736.29
345.59,736.84
346.03,737.21
346.47,737.45
346.92,737.62
347.36,737.82
347.80,738.10
348.24,738.54
348.68,739.18
349.13,740.05
349.57,741.12
350.01,742.36
350.45,743.67
350.89,744.97
351.34,746.13
351.78,747.06
352.22,747.66
352.66,747.87
353.10,747.67
353.54,747.07
353.99,746.12
354.43,744.94
354.87,743.62
355.31,742.30
355.75,741.10
356.19,740.13
356.63,739.49
357.08,739.23
357.52,739.37
357.96,739.93
358.40,740.87
358.84,742.15
359.28,743.71
359.72,745.47
360.16,747.34
360.60,749.24
361.05,751.07
361.49,752.76
361.93,754.22
362.37,755.38
362.81,756.20
363.25,756.66
363.69,756.75
364.13,756.49
364.57,755.93
365.01,755.12
365.45,754.13
365.89,753.04
366.33,751.94
366.78,750.90
367.22,750.01
367.66,749.32
368.10,748.91
368.54,748.82
368.98,749.07
369.42,749.67
369.86,750.61
370.30,751.87
370.74,753.39
371.18,755.12
371.62,757.00
372.06,758.96
372.50,760.95
372.94,762.92
373.38,764.86
373.82,766.75
374.26,768.60
374.70,770.43
375.14,772.28
375.58,774.17
376.02,776.11
376.46,778.13
376.90,780.20
377.34,782.31
377.78,784.43
378.21,786.54
378.65,788.59
379.09,790.57
379.53,792.48
379.97,794.32
380.41,796.11
380.85,797.89
381.29,799.69
381.73,801.55
382.17,803.50
382.61,805.56
383.05,807.74
383.49,810.02
383.93,812.39
384.36,814.83
384.80,817.31
385.24,819.82
385.68,822.35
386.12,824.88
386.56,827.44
387.00,830.01
387.44,832.59
387.87,835.16
388.31,837.67
388.75,840.05
389.19,842.21
389.63,844.05
390.07,845.49
390.51,846.47
390.94,846.96
391.38,847.00
391.82,846.67
392.26,846.12
392.70,845.51
393.14,845.08
393.57,845.01
394.01,845.51
394.45,846.73
394.89,848.74
395.33,851.60
395.76,855.26
396.20,859.65
396.64,864.63
397.08,870.06
397.52,875.78
397.95,881.64
398.39,887.52
398.83,893.32
399.27,898.95
399.70,904.39
400.14,909.62
400.58,914.64
401.02,919.47
401.45,924.15
401.89,928.71
402.33,933.19
402.77,937.60
403.20,941.96
403.64,946.29
404.08,950.58
404.52,954.83
404.95,959.01
405.39,963.13
405.83,967.17
406.26,971.13
406.70,975.02
407.14,978.85
407.58,982.66
408.01,986.49
408.45,990.38
408.89,994.39
409.32,998.59
409.76,1003.03
410.20,1007.75
410.63,1012.79
411.07,1018.15
411.51,1023.82
411.94,1029.75
412.38,1035.89
412.82,1042.20
413.25,1048.65
413.69,1055.24
414.12,1062.00
414.56,1068.98
415.00,1076.25
415.43,1083.86
415.87,1091.85
416.31,1100.19
416.74,1108.83
417.18,1117.67
417.61,1126.59
418.05,1135.46
418.49,1144.19
418.92,1152.72
419.36,1161.05
419.79,1169.26
420.23,1177.43
420.67,1185.70
421.10,1194.19
421.54,1203.01
421.97,1212.24
422.41,1221.90
422.84,1231.97
423.28,1242.40
423.71,1253.11
424.15,1264.00
424.59,1274.98
425.02,1285.94
425.46,1296.80
425.89,1307.48
426.33,1317.93
426.76,1328.12
427.20,1338.02
427.63,1347.66
428.07,1357.06
428.50,1366.27
428.94,1375.33
429.37,1384.29
429.81,1393.21
430.24,1402.09
430.68,1410.98
431.11,1419.86
431.55,1428.74
431.98,1437.63
432.42,1446.55
432.85,1455.53
433.28,1464.61
433.72,1473.87
434.15,1483.37
434.59,1493.17
435.02,1503.32
435.46,1513.84
435.89,1524.73
436.33,1535.93
436.76,1547.40
437.19,1559.04
437.63,1570.77
438.06,1582.48
438.50,1594.11
438.93,1605.58
439.37,1616.86
439.80,1627.91
440.23,1638.72
440.67,1649.30
441.10,1659.66
441.53,1669.83
441.97,1679.82
442.40,1689.68
442.84,1699.43
443.27,1709.10
443.70,1718.70
444.14,1728.20
444.57,1737.58
445.00,1746.75
445.44,1755.61
445.87,1764.05
446.30,1771.95
446.74,1779.22
447.17,1785.77
447.60,1791.62
448.04,1796.82
448.47,1801.51
448.90,1805.87
449.34,1810.14
449.77,1814.55
450.20,1819.34
450.64,1824.68
451.07,1830.72
451.50,1837.53
451.93,1845.12
452.37,1853.50
452.80,1862.64
453.23,1872.55
453.67,1883.26
454.10,1894.84
454.53,1907.39
454.96,1921.03
455.40,1935.85
455.83,1951.89
456.26,1969.15
456.69,1987.52
457.13,2006.83
457.56,2026.84
457.99,2047.29
458.42,2067.91
458.86,2088.49
459.29,2108.84
459.72,2128.88
460.15,2148.56
460.58,2167.88
461.02,2186.83
461.45,2205.43
461.88,2223.62
462.31,2241.33
462.74,2258.47
463.18,2274.94
463.61,2290.72
464.04,2305.82
464.47,2320.38
464.90,2334.64
465.33,2348.92
465.77,2363.59
466.20,2379.02
466.63,2395.52
467.06,2413.32
467.49,2432.49
467.92,2452.99
468.35,2474.68
468.78,2497.36
469.22,2520.83
469.65,2544.95
470.08,2569.70
470.51,2595.19
470.94,2621.65
471.37,2649.39
471.80,2678.75
472.23,2710.01
472.66,2743.35
473.10,2778.76
473.53,2816.06
473.96,2854.91
474.39,2894.86
474.82,2935.41
475.25,2976.17
475.68,3016.87
476.11,3057.47
476.54,3098.14
476.97,3139.26
477.40,3181.34
477.83,3224.90
478.26,3270.35
478.69,3317.89
479.12,3367.42
479.55,3418.53
479.98,3470.52
480.41,3522.50
480.84,3573.52
481.27,3622.74
481.70,3669.55
482.13,3713.71
482.56,3755.38
482.99,3795.11
483.42,3833.74
483.85,3872.28
484.28,3911.70
484.71,3952.75
485.14,3995.86
485.57,4040.98
486.00,4087.66
486.43,4135.06
486.86,4182.12
487.29,4227.75
487.72,4271.04
488.15,4311.41
488.58,4348.76
489.01,4383.46
489.44,4416.35
489.87,4448.58
490.30,4481.41
490.72,4516.02
491.15,4553.28
491.58,4593.59
492.01,4636.79
492.44,4682.19
492.87,4728.61
493.30,4774.60
493.73,4818.65
494.16,4859.41
494.59,4895.93
495.01,4927.79
495.44,4955.19
495.87,4978.90
496.30,5000.18
496.73,5020.58
497.16,5041.68
497.59,5064.90
498.01,5091.23
498.44,5121.14
498.87,5154.48
499.30,5190.51
499.73,5228.04
500.16,5265.62
500.58,5301.76
501.01,5335.14
501.44,5364.86
501.87,5390.59
502.30,5412.56
502.72,5431.61
503.15,5449.02
503.58,5466.34
504.01,5485.14
504.44,5506.80
504.86,5532.27
505.29,5561.94
505.72,5595.55
506.15,5632.22
506.57,5670.58
507.00,5708.95
507.43,5745.57
507.86,5778.88
508.28,5807.71
508.71,5831.50
509.14,5850.33
509.57,5864.97
509.99,5876.78
510.42,5887.47
510.85,5898.95
511.27,5913.00
511.70,5931.08
512.13,5954.09
512.56,5982.26
512.98,6015.11
513.41,6051.50
513.84,6089.79
514.26,6128.04
514.69,6164.28
515.12,6196.75
515.54,6224.18
515.97,6245.92
516.40,6262.04
516.82,6273.38
517.25,6281.36
517.68,6287.87
518.10,6294.98
518.53,6304.68
518.95,6318.60
519.38,6337.80
519.81,6362.58
520.23,6392.52
520.66,6426.42
521.09,6462.54
521.51,6498.79
521.94,6533.01
522.36,6563.28
522.79,6588.13
523.22,6606.79
523.64,6619.25
524.07,6626.26
524.49,6629.25
524.92,6630.10
525.34,6630.89
525.77,6633.62
526.20,6639.92
526.62,6650.85
527.05,6666.75
527.47,6687.18
527.90,6711.03
528.32,6736.61
528.75,6761.94
529.17,6784.93
529.60,6803.75
530.02,6816.97
530.45,6823.78
530.87,6824.10
531.30,6818.57
531.72,6808.50
532.15,6795.71
532.57,6782.32
533.00,6770.57
533.42,6762.53
533.85,6759.89
534.27,6763.83
534.70,6774.86
535.12,6792.76
535.55,6816.63
535.97,6844.95
536.40,6875.73
536.82,6906.71
537.25,6935.55
537.67,6960.11
538.09,6978.66
538.52,6990.03
538.94,6993.82
539.37,6990.38
539.79,6980.89
540.22,6967.15
540.64,6951.50
541.06,6936.49
541.49,6924.66
541.91,6918.22
542.34,6918.80
542.76,6927.30
543.18,6943.69
543.61,6967.11
544.03,6995.91
544.46,7027.81
544.88,7060.23
545.30,7090.51
545.73,7116.23
546.15,7135.45
546.57,7146.94
547.00,7150.29
547.42,7145.94
547.84,7135.16
548.27,7119.89
548.69,7102.55
549.11,7085.80
549.54,7072.27
549.96,7064.33
550.38,7063.77
550.81,7071.71
551.23,7088.45
551.65,7113.39
552.07,7145.18
552.50,7181.76
552.92,7220.61
553.34,7258.98
553.77,7294.16
554.19,7323.74
554.61,7345.81
555.03,7359.17
555.46,7363.44
555.88,7359.05
556.30,7347.25
556.72,7329.97
557.15,7309.65
557.57,7289.02
557.99,7270.89
558.41,7257.82
558.84,7251.98
559.26,7254.86
559.68,7267.18
560.10,7288.78
560.52,7318.62
560.95,7354.88
561.37,7395.11
561.79,7436.47
562.21,7476.01
562.63,7510.96
563.06,7539.01
563.48,7558.58
563.90,7568.96
564.32,7570.40
564.74,7564.11
565.16,7552.11
565.58,7537.02
566.01,7521.85
566.43,7509.63
566.85,7503.14
567.27,7504.63
567.69,7515.61
568.11,7536.69
568.53,7567.54
568.96,7606.88
569.38,7652.64
569.80,7702.09
570.22,7752.11
570.64,7799.41
571.06,7840.85
571.48,7873.64
571.90,7895.63
572.32,7905.42
572.74,7902.53
573.16,7887.42
573.58,7861.41
574.01,7826.65
574.43,7785.88
574.85,7742.22
575.27,7698.96
575.69,7659.21
576.11,7625.75
576.53,7600.75
576.95,7585.66
577.37,7581.10
577.79,7586.80
578.21,7601.72
578.63,7624.06
579.05,7651.47
579.47,7681.22
579.89,7710.40
580.31,7736.17
580.73,7755.95
581.15,7767.60
581.57,7769.66
581.99,7761.41
582.41,7742.94
582.83,7715.22
583.25,7679.95
583.67,7639.52
584.09,7596.76
584.51,7554.77
584.93,7516.64
585.34,7485.24
585.76,7462.94
586.18,7451.48
586.60,7451.84
587.02,7464.19
587.44,7487.90
587.86,7521.67
588.28,7563.61
588.70,7611.47
589.12,7662.80
589.54,7715.15
589.95,7766.19
590.37,7813.90
590.79,7856.66
591.21,7893.30
591.63,7923.19
592.05,7946.24
592.47,7962.95
592.89,7974.32
593.30,7981.88
593.72,7987.55
594.14,7993.55
594.56,8002.24
594.98,8015.95
595.40,8036.77
595.81,8066.38
596.23,8105.87
596.65,8155.67
597.07,8215.44
597.49,8284.11
597.90,8359.95
598.32,8440.72
598.74,8523.81
599.16,8606.46
599.58,8685.94
599.99,8759.72
600.41,8825.63
600.83,8881.99
601.25,8927.62
601.66,8961.96
602.08,8985.01
602.50,8997.34
602.92,9000.04
603.33,8994.63
603.75,8983.01
604.17,8967.31
604.59,8949.77
605.00,8932.61
605.42,8917.89
605.84,8907.38
606.25,8902.41
606.67,8903.84
607.09,8911.99
607.51,8926.62
607.92,8947.02
608.34,8972.04
608.76,9000.20
609.17,9029.81
609.59,9059.11
610.01,9086.33
610.42,9109.87
610.84,9128.35
611.26,9140.73
611.67,9146.38
612.09,9145.07
612.51,9137.09
612.92,9123.15
613.34,9104.39
613.75,9082.29
614.17,9058.61
614.59,9035.21
615.00,9013.99
615.42,8996.74
615.83,8984.99
616.25,8979.97
616.67,8982.53
617.08,8993.04
617.50,9011.48
617.91,9037.33
618.33,9069.71
618.75,9107.40
619.16,9148.90
619.58,9192.53
619.99,9236.52
620.41,9279.11
620.82,9318.64
621.24,9353.68
621.65,9383.08
622.07,9406.07
622.48,9422.32
622.90,9431.94
623.31,9435.48
623.73,9433.90
624.14,9428.50
624.56,9420.77
624.97,9412.32
625.39,9404.78
625.80,9399.63
626.22,9398.16
626.63,9401.41
627.05,9410.09
627.46,9424.62
627.88,9445.14
628.29,9471.46
628.71,9503.20
629.12,9539.71
629.54,9580.20
629.95,9623.68
630.37,9669.09
630.78,9715.25
631.19,9760.99
631.61,9805.16
632.02,9846.69
632.44,9884.69
632.85,9918.46
633.26,9947.54
633.68,9971.75
634.09,9991.18
634.51,10006.14
634.92,10017.20
635.33,10025.07
635.75,10030.61
636.16,10034.76
636.57,10038.49
636.99,10042.77
637.40,10048.53
637.82,10056.60
638.23,10067.71
638.64,10082.41
639.06,10101.08
639.47,10123.90
639.88,10150.82
640.30,10181.59
640.71,10215.73
641.12,10252.60
641.53,10291.43
641.95,10331.32
642.36,10371.38
642.77,10410.68
643.19,10448.39
643.60,10483.75
644.01,10516.18
644.42,10545.22
644.84,10570.64
645.25,10592.36
645.66,10610.49
646.08,10625.33
646.49,10637.31
646.90,10646.99
647.31,10655.05
647.73,10662.20
648.14,10669.23
648.55,10676.91
648.96,10685.96
649.37,10697.04
649.79,10710.71
650.20,10727.40
650.61,10747.35
651.02,10770.70
651.43,10797.38
651.85,10827.19
652.26,10859.83
652.67,10894.87
653.08,10931.80
653.49,10970.10
653.90,11009.18
654.32,11048.48
654.73,11087.45
655.14,11125.59
655.55,11162.42
655.96,11197.56
656.37,11230.67
656.78,11261.50
657.20,11289.86
657.61,11315.63
658.02,11338.72
658.43,11359.13
658.84,11376.90
659.25,11392.16
659.66,11405.12
660.07,11416.09
660.48,11425.53
660.90,11434.00
661.31,11442.19
661.72,11450.91
662.13,11460.99
662.54,11473.29
662.95,11488.60
663.36,11507.57
663.77,11530.71
664.18,11558.24
664.59,11590.15
665.00,11626.14
665.41,11665.63
665.82,11707.78
666.23,11751.58
666.64,11795.87
667.05,11839.44
667.46,11881.10
667.87,11919.79
668.28,11954.61
668.69,11984.92
669.10,12010.35
669.51,12030.84
669.92,12046.58
670.33,12058.07
670.74,12065.96
671.15,12071.07
671.56,12074.30
671.97,12076.56
672.38,12078.70
672.79,12081.53
673.20,12085.70
673.61,12091.79
674.02,12100.23
674.42,12111.33
674.83,12125.31
675.24,12142.29
675.65,12162.29
676.06,12185.24
676.47,12211.02
676.88,12239.37
677.29,12270.00
677.70,12302.51
678.11,12336.44
678.51,12371.27
678.92,12406.43
679.33,12441.30
679.74,12475.24
680.15,12507.63
680.56,12537.83
680.97,12565.25
681.37,12589.40
681.78,12609.89
682.19,12626.47
682.60,12639.08
683.01,12647.84
683.42,12653.08
683.82,12655.27
684.23,12655.06
684.64,12653.14
685.05,12650.27
685.45,12647.19
685.86,12644.57
686.27,12643.02
686.68,12643.02
687.09,12644.98
687.49,12649.19
687.90,12655.85
688.31,12665.10
688.72,12676.94
689.12,12691.35
689.53,12708.16
689.94,12727.17
690.35,12748.07
690.75,12770.52
691.16,12794.10
691.57,12818.41
691.97,12843.03
692.38,12867.55
692.79,12891.59
693.20,12914.84
693.60,12937.00
694.01,12957.82
694.42,12977.10
694.82,12994.67
695.23,13010.40
695.64,13024.19
696.04,13036.00
696.45,13045.81
696.86,13053.68
697.26,13059.71
697.67,13064.11
698.07,13067.13
698.48,13069.16
698.89,13070.64
699.29,13072.09
699.70,13074.09
700.11,13077.23
700.51,13082.07
700.92,13089.15
701.32,13098.87
701.73,13111.55
702.14,13127.34
702.54,13146.23
702.95,13168.07
703.35,13192.55
703.76,13219.24
704.16,13247.62
704.57,13277.08
704.97,13307.02
705.38,13336.81
705.79,13365.86
706.19,13393.63
706.60,13419.66
707.00,13443.55
707.41,13464.97
707.81,13483.68
708.22,13499.49
708.62,13512.28
709.03,13521.99
709.43,13528.58
709.84,13532.08
710.24,13532.58
710.65,13530.22
711.05,13525.23
711.46,13517.94
711.86,13508.76
712.27,13498.27
712.67,13487.12
713.07,13476.07
713.48,13465.94
713.88,13457.60
714.29,13451.83
714.69,13449.38
715.10,13450.79
715.50,13456.44
715.90,13466.46
716.31,13480.72
716.71,13498.85
717.12,13520.26
717.52,13544.19
717.92,13569.74
718.33,13595.98
718.73,13622.03
719.14,13647.09
719.54,13670.51
719.94,13691.84
720.35,13710.85
720.75,13727.45
721.15,13741.76
721.56,13753.94
721.96,13764.22
722.36,13772.75
722.77,13779.64
723.17,13784.85
723.57,13788.24
723.98,13789.57
724.38,13788.51
724.78,13784.73
725.19,13777.95
725.59,13767.98
725.99,13754.78
726.39,13738.50
726.80,13719.45
727.20,13698.16
727.60,13675.33
728.00,13651.77
728.41,13628.38
728.81,13606.12
729.21,13585.88
729.61,13568.50
730.02,13554.65
730.42,13544.85
730.82,13539.39
731.22,13538.32
731.63,13541.47
732.03,13548.44
