wavelength,counts
188.65,194.47
189.10,194.47
189.56,194.47
190.01,194.47
190.47,194.47
190.92,234.72
191.37,250.87
191.83,268.74
192.28,287.91
192.74,307.89
193.19,328.15
193.64,348.14
194.10,368.43
194.55,388.93
195.01,409.57
195.46,430.35
195.91,451.25
196.37,472.29
196.82,493.42
197.27,514.60
197.73,535.74
198.18,556.72
198.63,577.35
199.09,597.42
199.54,616.67
199.99,634.85
200.45,651.70
200.90,666.99
201.35,680.56
201.81,692.30
202.26,702.22
202.71,710.36
203.17,716.88
203.62,721.97
204.07,725.85
204.53,728.76
204.98,730.94
205.43,732.57
205.89,733.80
206.34,734.74
206.79,735.44
207.25,735.93
207.70,736.19
208.15,736.20
208.60,735.92
209.06,735.34
209.51,734.43
209.96,733.21
210.41,731.69
210.87,729.91
211.32,727.93
211.77,725.80
212.23,723.60
212.68,721.40
213.13,719.26
213.58,717.25
214.04,715.40
214.49,713.74
214.94,712.26
215.39,710.94
215.84,709.76
216.30,708.68
216.75,707.66
217.20,706.69
217.65,705.77
218.11,704.91
218.56,704.18
219.01,703.62
219.46,703.29
219.91,703.24
220.37,703.50
220.82,704.05
221.27,704.86
221.72,705.87
222.17,707.00
222.63,708.16
223.08,709.28
223.53,710.31
223.98,711.21
224.43,711.99
224.88,712.65
225.34,713.23
225.79,713.75
226.24,714.25
226.69,714.74
227.14,715.21
227.59,715.65
228.04,716.03
228.50,716.31
228.95,716.45
229.40,716.43
229.85,716.23
230.30,715.85
230.75,715.31
231.20,714.63
231.66,713.86
232.11,713.07
232.56,712.30
233.01,711.61
233.46,711.05
233.91,710.65
234.36,710.42
234.81,710.35
235.26,710.42
235.71,710.60
236.17,710.85
236.62,711.13
237.07,711.40
237.52,711.64
237.97,711.85
238.42,712.04
238.87,712.24
239.32,712.47
239.77,712.78
240.22,713.21
240.67,713.78
241.12,714.53
241.57,715.45
242.02,716.54
242.47,717.78
242.92,719.13
243.37,720.54
243.82,721.96
244.27,723.34
244.72,724.62
245.18,725.76
245.63,726.71
246.08,727.48
246.53,728.07
246.98,728.49
247.43,728.81
247.88,729.07
248.33,729.36
248.78,729.74
249.23,730.28
249.68,731.04
250.12,732.04
250.57,733.29
251.02,734.77
251.47,736.44
251.92,738.21
252.37,740.00
252.82,741.72
253.27,743.27
253.72,744.58
254.17,745.56
254.62,746.19
255.07,746.42
255.52,746.27
255.97,745.73
256.42,744.83
256.87,743.61
257.32,742.11
257.77,740.37
258.22,738.44
258.66,736.38
259.11,734.24
259.56,732.09
260.01,729.97
260.46,727.93
260.91,726.00
261.36,724.19
261.81,722.51
262.26,720.94
262.71,719.47
263.15,718.08
263.60,716.74
264.05,715.45
264.50,714.22
264.95,713.04
265.40,711.95
265.85,710.99
266.30,710.17
266.74,709.54
267.19,709.10
267.64,708.88
268.09,708.88
268.54,709.09
268.99,709.48
269.43,710.04
269.88,710.74
270.33,711.56
270.78,712.46
271.23,713.44
271.68,714.47
272.12,715.54
272.57,716.66
273.02,717.80
273.47,718.99
273.92,720.22
274.36,721.49
274.81,722.79
275.26,724.12
275.71,725.44
276.16,726.73
276.60,727.92
277.05,728.96
277.50,729.77
277.95,730.29
278.39,730.45
278.84,730.21
279.29,729.53
279.74,728.42
280.19,726.92
280.63,725.10
281.08,723.04
281.53,720.87
281.98,718.72
282.42,716.72
282.87,714.99
283.32,713.65
283.76,712.78
284.21,712.45
284.66,712.68
285.11,713.48
285.55,714.81
286.00,716.60
286.45,718.73
286.89,721.07
287.34,723.49
287.79,725.82
288.23,727.93
288.68,729.73
289.13,731.14
289.58,732.15
290.02,732.82
290.47,733.23
290.92,733.47
291.36,733.68
291.81,733.97
292.26,734.41
292.70,735.04
293.15,735.87
293.60,736.86
294.04,737.93
294.49,739.01
294.93,740.03
295.38,740.95
295.83,741.74
296.27,742.40
296.72,742.99
297.17,743.55
297.61,744.14
298.06,744.80
298.50,745.58
298.95,746.48
299.40,747.47
299.84,748.51
300.29,749.53
300.73,750.46
301.18,751.21
301.63,751.70
302.07,751.85
302.52,751.61
302.96,750.94
303.41,749.86
303.85,748.36
304.30,746.52
304.75,744.42
305.19,742.14
305.64,739.82
306.08,737.55
306.53,735.47
306.97,733.66
307.42,732.22
307.86,731.22
308.31,730.70
308.75,730.70
309.20,731.22
309.65,732.25
310.09,733.75
310.54,735.66
310.98,737.88
311.43,740.30
311.87,742.76
312.32,745.12
312.76,747.24
313.21,748.98
313.65,750.26
314.10,751.01
314.54,751.22
314.99,750.91
315.43,750.16
315.87,749.05
316.32,747.68
316.76,746.16
317.21,744.59
317.65,743.05
318.10,741.60
318.54,740.29
318.99,739.14
319.43,738.19
319.88,737.43
320.32,736.86
320.76,736.50
321.21,736.36
321.65,736.43
322.10,736.73
322.54,737.26
322.99,738.02
323.43,739.00
323.87,740.19
324.32,741.56
324.76,743.06
325.21,744.66
325.65,746.31
326.09,747.96
326.54,749.56
326.98,751.07
327.42,752.45
327.87,753.65
328.31,754.65
328.76,755.42
329.20,755.94
329.64,756.18
330.09,756.15
330.53,755.82
330.97,755.22
331.42,754.35
331.86,753.23
332.30,751.90
332.75,750.41
333.19,748.82
333.63,747.19
334.08,745.59
334.52,744.12
334.96,742.83
335.41,741.79
335.85,741.05
336.29,740.62
336.74,740.49
337.18,740.61
337.62,740.93
338.06,741.36
338.51,741.81
338.95,742.20
339.39,742.47
339.84,742.59
340.28,742.57
340.72,742.44
341.16,742.28
341.61,742.16
342.05,742.16
342.49,742.37
342.93,742.81
343.38,743.51
343.82,744.45
344.26,745.56
344.70,746.78
345.15,748.02
345.59,749.20
346.03,750.25
346.47,751.13
346.92,751.83
347.36,752.37
347.80,752.78
348.24,753.12
348.68,753.44
349.13,753.80
349.57,754.21
350.01,754.68
350.45,755.21
350.89,755.74
351.34,756.23
351.78,756.61
352.22,756.84
352.66,756.86
353.10,756.64
353.54,756.17
353.99,755.47
354.43,754.58
354.87,753.54
355.31,752.43
355.75,751.31
356.19,750.27
356.63,749.35
357.08,748.63
357.52,748.14
357.96,747.93
358.40,748.01
358.84,748.39
359.28,749.08
359.72,750.05
360.16,751.29
360.60,752.74
361.05,754.33
361.49,755.98
361.93,757.60
362.37,759.07
362.81,760.29
363.25,761.18
363.69,761.65
364.13,761.65
364.57,761.18
365.01,760.27
365.45,758.98
365.89,757.43
366.33,755.75
366.78,754.11
367.22,752.68
367.66,751.62
368.10,751.03
368.54,751.02
368.98,751.60
369.42,752.74
369.86,754.38
370.30,756.39
370.74,758.64
371.18,761.00
371.62,763.35
372.06,765.59
372.50,767.67
372.94,769.55
373.38,771.25
373.82,772.79
374.26,774.22
374.70,775.56
375.14,776.86
375.58,778.14
376.02,779.43
376.46,780.72
376.90,782.03
377.34,783.35
377.78,784.68
378.21,786.04
378.65,787.44
379.09,788.90
379.53,790.45
379.97,792.11
380.41,793.94
380.85,795.94
381.29,798.15
381.73,800.55
382.17,803.12
382.61,805.80
383.05,808.52
383.49,811.18
383.93,813.68
384.36,815.93
384.80,817.85
385.24,819.41
385.68,820.61
386.12,821.50
386.56,822.14
387.00,822.64
387.44,823.12
387.87,823.67
388.31,824.40
388.75,825.37
389.19,826.61
389.63,828.14
390.07,829.93
390.51,831.96
390.94,834.21
391.38,836.63
391.82,839.22
392.26,841.96
392.70,844.85
393.14,847.92
393.57,851.16
394.01,854.59
394.45,858.19
394.89,861.96
395.33,865.85
395.76,869.81
396.20,873.78
396.64,877.66
397.08,881.39
397.52,884.87
397.95,888.03
398.39,890.82
398.83,893.20
399.27,895.16
399.70,896.74
400.14,898.01
400.58,899.09
401.02,900.13
401.45,901.34
401.89,902.90
402.33,905.05
402.77,907.97
403.20,911.80
403.64,916.64
404.08,922.52
404.52,929.39
404.95,937.12
405.39,945.53
405.83,954.39
406.26,963.46
406.70,972.49
407.14,981.25
407.58,989.58
408.01,997.35
408.45,1004.52
408.89,1011.13
409.32,1017.26
409.76,1023.08
410.20,1028.77
410.63,1034.55
411.07,1040.60
411.51,1047.07
411.94,1054.06
412.38,1061.60
412.82,1069.64
413.25,1078.07
413.69,1086.75
414.12,1095.51
414.56,1104.16
415.00,1112.58
415.43,1120.66
415.87,1128.36
416.31,1135.68
416.74,1142.68
417.18,1149.43
417.61,1156.05
418.05,1162.63
418.49,1169.26
418.92,1176.03
419.36,1182.96
419.79,1190.07
420.23,1197.35
420.67,1204.76
421.10,1212.24
421.54,1219.74
421.97,1227.18
422.41,1234.54
422.84,1241.79
423.28,1248.95
423.71,1256.06
424.15,1263.20
424.59,1270.45
425.02,1277.94
425.46,1285.76
425.89,1293.99
426.33,1302.71
426.76,1311.95
427.20,1321.71
427.63,1331.97
428.07,1342.67
428.50,1353.74
428.94,1365.09
429.37,1376.59
429.81,1388.15
430.24,1399.64
430.68,1410.95
431.11,1421.99
431.55,1432.71
431.98,1443.08
432.42,1453.11
432.85,1462.84
433.28,1472.35
433.72,1481.72
434.15,1491.06
434.59,1500.43
435.02,1509.91
435.46,1519.54
435.89,1529.32
436.33,1539.28
436.76,1549.38
437.19,1559.62
437.63,1569.97
438.06,1580.40
438.50,1590.86
438.93,1601.31
439.37,1611.67
439.80,1621.86
440.23,1631.78
440.67,1641.34
441.10,1650.45
441.53,1659.05
441.97,1667.09
442.40,1674.60
442.84,1681.61
443.27,1688.23
443.70,1694.56
444.14,1700.73
444.57,1706.88
445.00,1713.11
445.44,1719.52
445.87,1726.16
446.30,1733.08
446.74,1740.30
447.17,1747.84
447.60,1755.72
448.04,1763.97
448.47,1772.66
448.90,1781.82
449.34,1791.52
449.77,1801.79
450.20,1812.61
450.64,1823.97
451.07,1835.78
451.50,1847.96
451.93,1860.42
452.37,1873.08
452.80,1885.93
453.23,1899.02
453.67,1912.46
454.10,1926.40
454.53,1941.04
454.96,1956.54
455.40,1973.03
455.83,1990.51
456.26,2008.92
456.69,2028.03
457.13,2047.56
457.56,2067.14
457.99,2086.41
458.42,2105.05
458.86,2122.82
459.29,2139.61
459.72,2155.43
460.15,2170.43
460.58,2184.80
461.02,2198.81
461.45,2212.70
461.88,2226.68
462.31,2240.88
462.74,2255.36
463.18,2270.14
463.61,2285.18
464.04,2300.49
464.47,2316.11
464.90,2332.12
465.33,2348.70
465.77,2366.06
466.20,2384.45
466.63,2404.05
467.06,2425.00
467.49,2447.32
467.92,2470.93
468.35,2495.64
468.78,2521.20
469.22,2547.36
469.65,2573.90
470.08,2600.72
470.51,2627.81
470.94,2655.29
471.37,2683.38
471.80,2712.34
472.23,2742.38
472.66,2773.69
473.10,2806.29
473.53,2840.11
473.96,2874.97
474.39,2910.62
474.82,2946.84
475.25,2983.48
475.68,3020.52
476.11,3058.10
476.54,3096.51
476.97,3136.18
477.40,3177.52
477.83,3220.93
478.26,3266.64
478.69,3314.64
479.12,3364.70
479.55,3416.28
479.98,3468.67
480.41,3521.01
480.84,3572.47
481.27,3622.33
481.70,3670.09
482.13,3715.58
482.56,3758.98
482.99,3800.79
483.42,3841.73
483.85,3882.65
484.28,3924.36
484.71,3967.51
485.14,4012.45
485.57,4059.15
486.00,4107.22
486.43,4155.97
486.86,4204.47
487.29,4251.79
487.72,4297.11
488.15,4339.89
488.58,4379.99
489.01,4417.69
489.44,4453.69
489.87,4488.98
490.30,4524.66
490.72,4561.80
491.15,4601.19
491.58,4643.22
492.01,4687.79
492.44,4734.26
492.87,4781.59
493.30,4828.44
493.73,4873.39
494.16,4915.18
494.59,4952.90
495.01,4986.14
495.44,5015.11
495.87,5040.55
496.30,5063.71
496.73,5086.10
497.16,5109.27
497.59,5134.59
498.01,5163.00
498.44,5194.85
498.87,5229.87
499.30,5267.16
499.73,5305.37
500.16,5342.88
500.58,5378.09
501.01,5409.65
501.44,5436.72
501.87,5459.09
502.30,5477.25
502.72,5492.31
503.15,5505.84
503.58,5519.66
504.01,5535.50
504.44,5554.81
504.86,5578.47
505.29,5606.69
505.72,5638.97
506.15,5674.17
506.57,5710.68
507.00,5746.65
507.43,5780.29
507.86,5810.09
508.28,5835.09
508.71,5854.96
509.14,5870.09
509.57,5881.55
509.99,5890.87
510.42,5899.91
510.85,5910.56
511.27,5924.48
511.70,5942.87
512.13,5966.32
512.56,5994.70
512.98,6027.17
513.41,6062.28
513.84,6098.17
514.26,6132.81
514.69,6164.22
515.12,6190.80
515.54,6211.50
515.97,6225.99
516.40,6234.69
516.82,6238.75
517.25,6239.90
517.68,6240.25
518.10,6242.03
518.53,6247.29
518.95,6257.68
519.38,6274.21
519.81,6297.13
520.23,6325.91
520.66,6359.25
521.09,6395.33
521.51,6431.93
521.94,6466.76
522.36,6497.75
522.79,6523.25
523.22,6542.29
523.64,6554.67
524.07,6560.99
524.49,6562.59
524.92,6561.37
525.34,6559.56
525.77,6559.45
526.20,6563.12
526.62,6572.15
527.05,6587.47
527.47,6609.23
527.90,6636.77
528.32,6668.74
528.75,6703.23
529.17,6738.04
529.60,6770.90
530.02,6799.78
530.45,6823.10
530.87,6839.93
531.30,6850.05
531.72,6854.03
532.15,6853.10
532.57,6849.02
533.00,6843.92
533.42,6839.99
533.85,6839.29
534.27,6843.47
534.70,6853.61
535.12,6870.07
535.55,6892.46
535.97,6919.64
536.40,6949.86
536.82,6980.96
537.25,7010.60
537.67,7036.49
538.09,7056.75
538.52,7070.04
538.94,7075.77
539.37,7074.19
539.79,7066.34
540.22,7053.95
540.64,7039.26
541.06,7024.76
541.49,7012.91
541.91,7005.85
542.34,7005.20
542.76,7011.83
543.18,7025.80
543.61,7046.34
544.03,7071.96
544.46,7100.57
544.88,7129.77
545.30,7157.04
545.73,7180.11
546.15,7197.09
546.57,7206.78
547.00,7208.73
547.42,7203.32
547.84,7191.71
548.27,7175.77
548.69,7157.84
549.11,7140.49
549.54,7126.29
549.96,7117.51
550.38,7115.86
550.81,7122.35
551.23,7137.10
551.65,7159.40
552.07,7187.70
552.50,7219.81
552.92,7253.13
553.34,7284.86
553.77,7312.33
554.19,7333.25
554.61,7345.93
555.03,7349.45
555.46,7343.74
555.88,7329.56
556.30,7308.48
556.72,7282.68
557.15,7254.80
557.57,7227.65
557.99,7204.00
558.41,7186.32
558.84,7176.56
559.26,7175.99
559.68,7185.05
560.10,7203.31
560.52,7229.55
560.95,7261.77
561.37,7297.43
561.79,7333.64
562.21,7367.45
562.63,7396.09
563.06,7417.31
563.48,7429.52
563.90,7432.07
564.32,7425.27
564.74,7410.41
565.16,7389.66
565.58,7365.84
566.01,7342.17
566.43,7321.94
566.85,7308.17
567.27,7303.33
567.69,7309.05
568.11,7326.01
568.53,7353.85
568.96,7391.24
569.38,7435.96
569.80,7485.20
570.22,7535.75
570.64,7584.30
571.06,7627.74
571.48,7663.36
571.90,7689.08
572.32,7703.54
572.74,7706.24
573.16,7697.46
573.58,7678.25
574.01,7650.34
574.43,7615.96
574.85,7577.68
575.27,7538.22
575.69,7500.29
576.11,7466.36
576.53,7438.55
576.95,7418.44
577.37,7407.06
577.79,7404.75
578.21,7411.21
578.63,7425.53
579.05,7446.22
579.47,7471.36
579.89,7498.74
580.31,7526.00
580.73,7550.78
581.15,7570.98
581.57,7584.82
581.99,7591.09
582.41,7589.18
582.83,7579.23
583.25,7562.08
583.67,7539.29
584.09,7512.98
584.51,7485.72
584.93,7460.31
585.34,7439.55
585.76,7425.99
586.18,7421.72
586.60,7428.20
587.02,7446.09
587.44,7475.23
587.86,7514.62
588.28,7562.55
588.70,7616.71
589.12,7674.39
589.54,7732.76
589.95,7789.02
590.37,7840.68
590.79,7885.73
591.21,7922.79
591.63,7951.19
592.05,7971.01
592.47,7983.11
592.89,7989.01
593.30,7990.78
593.72,7990.94
594.14,7992.20
594.56,7997.33
594.98,8008.91
595.40,8029.14
595.81,8059.68
596.23,8101.49
596.65,8154.77
597.07,8218.93
597.49,8292.59
597.90,8373.75
598.32,8459.87
598.74,8548.04
599.16,8635.27
599.58,8718.56
599.99,8795.20
600.41,8862.86
600.83,8919.75
601.25,8964.69
601.66,8997.16
602.08,9017.31
602.50,9025.94
602.92,9024.43
603.33,9014.64
603.75,8998.83
604.17,8979.48
604.59,8959.15
605.00,8940.31
605.42,8925.19
605.84,8915.60
606.25,8912.84
606.67,8917.58
607.09,8929.84
607.51,8949.02
607.92,8973.94
608.34,9002.95
608.76,9034.11
609.17,9065.32
609.59,9094.51
610.01,9119.78
610.42,9139.53
610.84,9152.61
611.26,9158.31
611.67,9156.46
612.09,9147.36
612.51,9131.79
612.92,9110.91
613.34,9086.17
613.75,9059.23
614.17,9031.85
614.59,9005.80
615.00,8982.76
615.42,8964.25
615.83,8951.60
616.25,8945.87
616.67,8947.81
617.08,8957.84
617.50,8976.01
617.91,9001.98
618.33,9034.99
618.75,9073.88
619.16,9117.14
619.58,9162.94
619.99,9209.31
620.41,9254.20
620.82,9295.69
621.24,9332.11
621.65,9362.18
622.07,9385.12
622.48,9400.70
622.90,9409.21
623.31,9411.42
623.73,9408.51
624.14,9401.91
624.56,9393.21
624.97,9384.02
625.39,9375.85
625.80,9370.07
626.22,9367.81
626.63,9369.98
627.05,9377.23
627.46,9389.95
627.88,9408.29
628.29,9432.19
628.71,9461.32
629.12,9495.20
629.54,9533.09
629.95,9574.11
630.37,9617.20
630.78,9661.22
631.19,9704.96
631.61,9747.27
632.02,9787.05
632.44,9823.40
632.85,9855.63
633.26,9883.29
633.68,9906.21
634.09,9924.49
634.51,9938.45
634.92,9948.61
635.33,9955.64
635.75,9960.35
636.16,9963.60
636.57,9966.33
636.99,9969.50
637.40,9974.06
637.82,9980.93
638.23,9990.96
638.64,10004.85
639.06,10023.14
639.47,10046.12
639.88,10073.84
640.30,10106.02
640.71,10142.15
641.12,10181.43
641.53,10222.90
641.95,10265.46
642.36,10307.98
642.77,10349.38
643.19,10388.69
643.60,10425.10
644.01,10458.00
644.42,10487.00
644.84,10511.94
645.25,10532.85
645.66,10549.95
646.08,10563.62
646.49,10574.39
646.90,10582.92
647.31,10589.97
647.73,10596.37
648.14,10603.04
648.55,10610.90
648.96,10620.83
649.37,10633.67
649.79,10650.14
650.20,10670.79
650.61,10695.97
651.02,10725.79
651.43,10760.14
651.85,10798.64
652.26,10840.72
652.67,10885.64
653.08,10932.49
653.49,10980.33
653.90,11028.17
654.32,11075.09
654.73,11120.24
655.14,11162.89
655.55,11202.49
655.96,11238.64
656.37,11271.12
656.78,11299.88
657.20,11325.01
657.61,11346.75
658.02,11365.45
658.43,11381.53
658.84,11395.51
659.25,11407.96
659.66,11419.51
660.07,11430.81
660.48,11442.52
660.90,11455.34
661.31,11469.92
661.72,11486.87
662.13,11506.71
662.54,11529.85
662.95,11556.53
663.36,11586.78
663.77,11620.40
664.18,11657.00
664.59,11695.93
665.00,11736.36
665.41,11777.35
665.82,11817.87
666.23,11856.93
666.64,11893.64
667.05,11927.26
667.46,11957.29
667.87,11983.49
668.28,12005.85
668.69,12024.61
669.10,12040.16
669.51,12053.01
669.92,12063.71
670.33,12072.80
670.74,12080.78
671.15,12088.04
671.56,12094.93
671.97,12101.71
672.38,12108.62
672.79,12115.86
673.20,12123.66
673.61,12132.29
674.02,12142.01
674.42,12153.13
674.83,12165.95
675.24,12180.76
675.65,12197.81
676.06,12217.25
676.47,12239.17
676.88,12263.53
677.29,12290.17
677.70,12318.77
678.11,12348.93
678.51,12380.09
678.92,12411.62
679.33,12442.84
679.74,12473.07
680.15,12501.65
680.56,12528.01
680.97,12551.67
681.37,12572.28
681.78,12589.61
682.19,12603.55
682.60,12614.11
683.01,12621.39
683.42,12625.57
683.82,12626.97
684.23,12625.98
684.64,12623.11
685.05,12618.98
685.45,12614.34
685.86,12610.00
686.27,12606.84
686.68,12605.75
687.09,12607.54
687.49,12612.93
687.90,12622.47
688.31,12636.47
688.72,12655.03
689.12,12677.99
689.53,12704.98
689.94,12735.42
690.35,12768.57
690.75,12803.61
691.16,12839.65
691.57,12875.81
691.97,12911.23
692.38,12945.15
692.79,12976.88
693.20,13005.83
693.60,13031.54
694.01,13053.65
694.42,13071.93
694.82,13086.26
695.23,13096.69
695.64,13103.36
696.04,13106.56
696.45,13106.71
696.86,13104.35
697.26,13100.11
697.67,13094.66
698.07,13088.72
698.48,13082.98
698.89,13078.09
699.29,13074.61
699.70,13073.01
700.11,13073.62
700.51,13076.69
700.92,13082.34
701.32,13090.61
701.73,13101.48
702.14,13114.85
702.54,13130.61
702.95,13148.60
703.35,13168.65
703.76,13190.53
704.16,13214.01
704.57,13238.82
704.97,13264.64
705.38,13291.10
705.79,13317.78
706.19,13344.24
706.60,13369.99
707.00,13394.54
707.41,13417.40
707.81,13438.11
708.22,13456.30
708.62,13471.65
709.03,13483.97
709.43,13493.18
709.84,13499.35
710.24,13502.64
710.65,13503.36
711.05,13501.90
711.46,13498.72
711.86,13494.34
712.27,13489.28
712.67,13484.06
713.07,13479.20
713.48,13475.16
713.88,13472.36
714.29,13471.19
714.69,13471.99
715.10,13475.06
715.50,13480.64
715.90,13488.92
716.31,13499.99
716.71,13513.86
717.12,13530.40
717.52,13549.39
717.92,13570.45
718.33,13593.11
718.73,13616.83
719.14,13641.01
719.54,13665.08
719.94,13688.48
720.35,13710.73
720.75,13731.38
721.15,13750.06
721.56,13766.43
721.96,13780.14
722.36,13790.89
722.77,13798.37
723.17,13802.35
723.57,13802.66
723.98,13799.27
724.38,13792.36
724.78,13782.27
725.19,13769.59
725.59,13755.03
725.99,13739.42
726.39,13723.61
726.80,13708.38
727.20,13694.35
727.60,13681.95
728.00,13671.40
728.41,13662.73
728.81,13655.83
729.21,13650.51
729.61,13646.56
730.02,13643.85
730.42,13642.30
730.82,13641.95
731.22,13642.89
731.63,13645.25
732.03,13649.14
732.43,13654.59
