wavelength,counts
188.65,130.55
189.10,130.55
189.56,130.55
190.01,130.55
190.47,130.55
190.92,139.24
191.37,144.18
191.83,150.73
192.28,159.08
192.74,169.36
193.19,181.60
193.64,195.73
194.10,211.71
194.55,229.34
195.01,248.39
195.46,268.57
195.91,289.58
196.37,311.10
196.82,332.83
197.27,354.45
197.73,375.71
198.18,396.34
198.63,416.13
199.09,434.89
199.54,452.45
199.99,468.71
200.45,483.57
200.90,497.00
201.35,508.99
201.81,519.57
202.26,528.81
202.71,536.79
203.17,543.66
203.62,549.53
204.07,554.56
204.53,558.88
204.98,562.61
205.43,565.83
205.89,568.63
206.34,571.04
206.79,573.07
207.25,574.73
207.70,576.02
208.15,576.91
208.60,577.40
209.06,577.50
209.51,577.23
209.96,576.60
210.41,575.65
210.87,574.44
211.32,573.00
211.77,571.41
212.23,569.73
212.68,568.03
213.13,566.37
213.58,564.82
214.04,563.42
214.49,562.22
214.94,561.25
215.39,560.50
215.84,559.98
216.30,559.66
216.75,559.52
217.20,559.50
217.65,559.57
218.11,559.65
218.56,559.69
219.01,559.64
219.46,559.45
219.91,559.07
220.37,558.48
220.82,557.66
221.27,556.61
221.72,555.35
222.17,553.89
222.63,552.30
223.08,550.62
223.53,548.94
223.98,547.36
224.43,545.98
224.88,544.93
225.34,544.33
225.79,544.25
226.24,544.76
226.69,545.88
227.14,547.55
227.59,549.68
228.04,552.10
228.50,554.64
228.95,557.07
229.40,559.21
229.85,560.89
230.30,561.97
230.75,562.40
231.20,562.17
231.66,561.32
232.11,559.95
232.56,558.18
233.01,556.14
233.46,553.96
233.91,551.77
234.36,549.67
234.81,547.75
235.26,546.08
235.71,544.71
236.17,543.67
236.62,542.98
237.07,542.63
237.52,542.62
237.97,542.89
238.42,543.42
238.87,544.13
239.32,544.99
239.77,545.92
240.22,546.89
240.67,547.86
241.12,548.80
241.57,549.72
242.02,550.60
242.47,551.44
242.92,552.25
243.37,553.02
243.82,553.73
244.27,554.36
244.72,554.88
245.18,555.26
245.63,555.49
246.08,555.54
246.53,555.43
246.98,555.17
247.43,554.78
247.88,554.29
248.33,553.74
248.78,553.17
249.23,552.59
249.68,552.03
250.12,551.51
250.57,551.01
251.02,550.56
251.47,550.16
251.92,549.81
252.37,549.53
252.82,549.34
253.27,549.25
253.72,549.30
254.17,549.49
254.62,549.82
255.07,550.28
255.52,550.87
255.97,551.53
256.42,552.25
256.87,552.97
257.32,553.64
257.77,554.24
258.22,554.71
258.66,555.05
259.11,555.23
259.56,555.26
260.01,555.15
260.46,554.94
260.91,554.67
261.36,554.40
261.81,554.19
262.26,554.11
262.71,554.22
263.15,554.57
263.60,555.18
264.05,556.08
264.50,557.23
264.95,558.59
265.40,560.12
265.85,561.72
266.30,563.33
266.74,564.87
267.19,566.26
267.64,567.45
268.09,568.40
268.54,569.07
268.99,569.43
269.43,569.49
269.88,569.24
270.33,568.70
270.78,567.89
271.23,566.88
271.68,565.73
272.12,564.51
272.57,563.30
273.02,562.20
273.47,561.26
273.92,560.54
274.36,560.06
274.81,559.85
275.26,559.86
275.71,560.08
276.16,560.46
276.60,560.95
277.05,561.52
277.50,562.13
277.95,562.76
278.39,563.40
278.84,564.04
279.29,564.66
279.74,565.23
280.19,565.72
280.63,566.08
281.08,566.24
281.53,566.15
281.98,565.76
282.42,565.05
282.87,564.03
283.32,562.74
283.76,561.27
284.21,559.72
284.66,558.20
285.11,556.85
285.55,555.77
286.00,555.05
286.45,554.72
286.89,554.82
287.34,555.32
287.79,556.17
288.23,557.32
288.68,558.67
289.13,560.13
289.58,561.62
290.02,563.02
290.47,564.24
290.92,565.19
291.36,565.81
291.81,566.03
292.26,565.83
292.70,565.22
293.15,564.25
293.60,562.99
294.04,561.52
294.49,559.97
294.93,558.43
295.38,557.03
295.83,555.85
296.27,554.96
296.72,554.41
297.17,554.23
297.61,554.44
298.06,555.04
298.50,556.00
298.95,557.32
299.40,558.97
299.84,560.89
300.29,563.04
300.73,565.33
301.18,567.70
301.63,570.04
302.07,572.28
302.52,574.32
302.96,576.10
303.41,577.60
303.85,578.78
304.30,579.68
304.75,580.31
305.19,580.73
305.64,580.99
306.08,581.12
306.53,581.16
306.97,581.10
307.42,580.93
307.86,580.64
308.31,580.19
308.75,579.54
309.20,578.69
309.65,577.64
310.09,576.42
310.54,575.06
310.98,573.66
311.43,572.29
311.87,571.05
312.32,570.05
312.76,569.37
313.21,569.09
313.65,569.27
314.10,569.90
314.54,570.99
314.99,572.46
315.43,574.25
315.87,576.22
316.32,578.25
316.76,580.21
317.21,581.98
317.65,583.46
318.10,584.58
318.54,585.31
318.99,585.67
319.43,585.68
319.88,585.40
320.32,584.90
320.76,584.25
321.21,583.49
321.65,582.69
322.10,581.89
322.54,581.12
322.99,580.44
323.43,579.90
323.87,579.55
324.32,579.48
324.76,579.73
325.21,580.37
325.65,581.42
326.09,582.90
326.54,584.75
326.98,586.91
327.42,589.28
327.87,591.72
328.31,594.11
328.76,596.30
329.20,598.19
329.64,599.67
330.09,600.68
330.53,601.18
330.97,601.18
331.42,600.69
331.86,599.75
332.30,598.41
332.75,596.76
333.19,594.87
333.63,592.85
334.08,590.79
334.52,588.80
334.96,587.01
335.41,585.49
335.85,584.32
336.29,583.54
336.74,583.16
337.18,583.11
337.62,583.32
338.06,583.67
338.51,584.02
338.95,584.25
339.39,584.23
339.84,583.90
340.28,583.22
340.72,582.23
341.16,581.01
341.61,579.69
342.05,578.43
342.49,577.39
342.93,576.75
343.38,576.62
343.82,577.11
344.26,578.24
344.70,579.96
345.15,582.19
345.59,584.74
346.03,587.44
346.47,590.04
346.92,592.32
347.36,594.05
347.80,595.07
348.24,595.25
348.68,594.54
349.13,592.94
349.57,590.54
350.01,587.50
350.45,584.00
350.89,580.28
351.34,576.55
351.78,573.02
352.22,569.87
352.66,567.22
353.10,565.11
353.54,563.55
353.99,562.50
354.43,561.88
354.87,561.60
355.31,561.57
355.75,561.72
356.19,562.00
356.63,562.41
357.08,562.96
357.52,563.70
357.96,564.68
358.40,565.94
358.84,567.53
359.28,569.47
359.72,571.72
360.16,574.25
360.60,576.97
361.05,579.76
361.49,582.52
361.93,585.11
362.37,587.43
362.81,589.38
363.25,590.92
363.69,592.04
364.13,592.77
364.57,593.18
365.01,593.37
365.45,593.44
365.89,593.49
366.33,593.60
366.78,593.84
367.22,594.22
367.66,594.73
368.10,595.34
368.54,595.99
368.98,596.65
369.42,597.24
369.86,597.76
370.30,598.20
370.74,598.56
371.18,598.87
371.62,599.19
372.06,599.55
372.50,600.01
372.94,600.60
373.38,601.37
373.82,602.33
374.26,603.51
374.70,604.90
375.14,606.49
375.58,608.27
376.02,610.16
376.46,612.11
376.90,614.04
377.34,615.84
377.78,617.45
378.21,618.79
378.65,619.84
379.09,620.61
379.53,621.15
379.97,621.55
380.41,621.92
380.85,622.40
381.29,623.07
381.73,624.04
382.17,625.35
382.61,627.00
383.05,628.94
383.49,631.12
383.93,633.44
384.36,635.83
384.80,638.19
385.24,640.48
385.68,642.67
386.12,644.75
386.56,646.75
387.00,648.71
387.44,650.67
387.87,652.71
388.31,654.87
388.75,657.20
389.19,659.73
389.63,662.46
390.07,665.37
390.51,668.44
390.94,671.60
391.38,674.78
391.82,677.91
392.26,680.92
392.70,683.75
393.14,686.38
393.57,688.80
394.01,691.04
394.45,693.17
394.89,695.26
395.33,697.40
395.76,699.68
396.20,702.14
396.64,704.85
397.08,707.79
397.52,710.94
397.95,714.24
398.39,717.61
398.83,720.94
399.27,724.14
399.70,727.11
400.14,729.77
400.58,732.07
401.02,734.01
401.45,735.61
401.89,736.94
402.33,738.10
402.77,739.23
403.20,740.49
403.64,742.04
404.08,744.06
404.52,746.70
404.95,750.08
405.39,754.26
405.83,759.26
406.26,765.04
406.70,771.51
407.14,778.51
407.58,785.89
408.01,793.46
408.45,801.05
408.89,808.53
409.32,815.80
409.76,822.79
410.20,829.46
410.63,835.82
411.07,841.86
411.51,847.58
411.94,852.99
412.38,858.06
412.82,862.81
413.25,867.21
413.69,871.29
414.12,875.09
414.56,878.67
415.00,882.14
415.43,885.61
415.87,889.24
416.31,893.17
416.74,897.57
417.18,902.56
417.61,908.28
418.05,914.80
418.49,922.17
418.92,930.39
419.36,939.42
419.79,949.16
420.23,959.50
420.67,970.30
421.10,981.39
421.54,992.63
421.97,1003.86
422.41,1014.98
422.84,1025.87
423.28,1036.45
423.71,1046.69
424.15,1056.56
424.59,1066.06
425.02,1075.21
425.46,1084.05
425.89,1092.63
426.33,1101.01
426.76,1109.25
427.20,1117.37
427.63,1125.39
428.07,1133.31
428.50,1141.11
428.94,1148.76
429.37,1156.20
429.81,1163.43
430.24,1170.45
430.68,1177.29
431.11,1184.04
431.55,1190.78
431.98,1197.62
432.42,1204.68
432.85,1212.02
433.28,1219.69
433.72,1227.68
434.15,1235.94
434.59,1244.38
435.02,1252.89
435.46,1261.38
435.89,1269.73
436.33,1277.89
436.76,1285.81
437.19,1293.50
437.63,1300.97
438.06,1308.27
438.50,1315.47
438.93,1322.63
439.37,1329.84
439.80,1337.17
440.23,1344.70
440.67,1352.48
441.10,1360.57
441.53,1368.98
441.97,1377.69
442.40,1386.68
442.84,1395.88
443.27,1405.23
443.70,1414.66
444.14,1424.12
444.57,1433.60
445.00,1443.13
445.44,1452.73
445.87,1462.48
446.30,1472.42
446.74,1482.58
447.17,1492.96
447.60,1503.48
448.04,1514.03
448.47,1524.44
448.90,1534.54
449.34,1544.16
449.77,1553.18
450.20,1561.53
450.64,1569.20
451.07,1576.27
451.50,1582.88
451.93,1589.21
452.37,1595.48
452.80,1601.92
453.23,1608.73
453.67,1616.11
454.10,1624.23
454.53,1633.24
454.96,1643.26
455.40,1654.41
455.83,1666.79
456.26,1680.46
456.69,1695.43
457.13,1711.67
457.56,1729.04
457.99,1747.33
458.42,1766.26
458.86,1785.47
459.29,1804.60
459.72,1823.29
460.15,1841.28
460.58,1858.38
461.02,1874.55
461.45,1889.87
461.88,1904.53
462.31,1918.75
462.74,1932.80
463.18,1946.87
463.61,1961.11
464.04,1975.59
464.47,1990.27
464.90,2005.14
465.33,2020.13
465.77,2035.29
466.20,2050.69
466.63,2066.55
467.06,2083.12
467.49,2100.70
467.92,2119.57
468.35,2139.94
468.78,2161.88
469.22,2185.32
469.65,2210.09
470.08,2235.91
470.51,2262.48
470.94,2289.56
471.37,2316.98
471.80,2344.74
472.23,2372.97
472.66,2401.93
473.10,2431.94
473.53,2463.31
473.96,2496.27
474.39,2530.87
474.82,2567.03
475.25,2604.43
475.68,2642.63
476.11,2681.11
476.54,2719.36
476.97,2756.93
477.40,2793.60
477.83,2829.34
478.26,2864.34
478.69,2899.01
479.12,2933.88
479.55,2969.48
479.98,3006.27
480.41,3044.52
480.84,3084.27
481.27,3125.27
481.70,3167.07
482.13,3209.06
482.56,3250.59
482.99,3291.13
483.42,3330.32
483.85,3368.12
484.28,3404.77
484.71,3440.81
485.14,3476.94
485.57,3513.90
486.00,3552.31
486.43,3592.58
486.86,3634.74
487.29,3678.45
487.72,3723.02
488.15,3767.51
488.58,3810.90
489.01,3852.22
489.44,3890.79
489.87,3926.26
490.30,3958.78
490.72,3988.88
491.15,4017.45
491.58,4045.59
492.01,4074.35
492.44,4104.62
492.87,4136.88
493.30,4171.19
493.73,4207.07
494.16,4243.64
494.59,4279.77
495.01,4314.21
495.44,4345.90
495.87,4374.14
496.30,4398.74
496.73,4420.07
497.16,4439.08
497.59,4457.11
498.01,4475.72
498.44,4496.44
498.87,4520.48
499.30,4548.59
499.73,4580.85
500.16,4616.72
500.58,4655.05
501.01,4694.32
501.44,4732.84
501.87,4769.04
502.30,4801.69
502.72,4830.15
503.15,4854.41
503.58,4875.11
504.01,4893.45
504.44,4910.95
504.86,4929.22
505.29,4949.69
505.72,4973.37
506.15,5000.71
506.57,5031.45
507.00,5064.76
507.43,5099.26
507.86,5133.34
508.28,5165.31
508.71,5193.77
509.14,5217.78
509.57,5237.00
509.99,5251.84
510.42,5263.30
510.85,5272.90
511.27,5282.45
511.70,5293.75
512.13,5308.34
512.56,5327.26
512.98,5350.89
513.41,5378.88
513.84,5410.20
514.26,5443.29
514.69,5476.25
515.12,5507.15
515.54,5534.27
515.97,5556.40
516.40,5572.95
516.82,5584.10
517.25,5590.75
517.68,5594.44
518.10,5597.15
518.53,5601.02
518.95,5608.10
519.38,5620.05
519.81,5637.93
520.23,5662.08
520.66,5692.01
521.09,5726.52
521.51,5763.81
521.94,5801.70
522.36,5837.94
522.79,5870.45
523.22,5897.61
523.64,5918.44
524.07,5932.72
524.49,5940.98
524.92,5944.43
525.34,5944.78
525.77,5944.02
526.20,5944.15
526.62,5946.93
527.05,5953.66
527.47,5965.04
527.90,5981.09
528.32,6001.15
528.75,6024.03
529.17,6048.15
529.60,6071.74
530.02,6093.11
530.45,6110.88
530.87,6124.11
531.30,6132.49
531.72,6136.37
532.15,6136.69
532.57,6134.90
533.00,6132.74
533.42,6132.07
533.85,6134.55
534.27,6141.46
534.70,6153.54
535.12,6170.83
535.55,6192.72
535.97,6217.95
536.40,6244.81
536.82,6271.33
537.25,6295.52
537.67,6315.59
538.09,6330.22
538.52,6338.69
538.94,6340.95
539.37,6337.71
539.79,6330.30
540.22,6320.55
540.64,6310.61
541.06,6302.70
541.49,6298.86
541.91,6300.71
542.34,6309.30
542.76,6324.92
543.18,6347.13
543.61,6374.74
544.03,6405.96
544.46,6438.60
544.88,6470.31
545.30,6498.81
545.73,6522.21
546.15,6539.19
546.57,6549.15
547.00,6552.34
547.42,6549.76
547.84,6543.13
548.27,6534.62
548.69,6526.69
549.11,6521.71
549.54,6521.74
549.96,6528.27
550.38,6542.04
550.81,6562.96
551.23,6590.08
551.65,6621.71
552.07,6655.61
552.50,6689.22
552.92,6719.95
553.34,6745.44
553.77,6763.83
554.19,6773.95
554.61,6775.46
555.03,6768.85
555.46,6755.47
555.88,6737.32
556.30,6716.90
556.72,6696.95
557.15,6680.18
557.57,6669.01
557.99,6665.29
558.41,6670.19
558.84,6683.98
559.26,6706.10
559.68,6735.13
560.10,6768.97
560.52,6805.06
560.95,6840.60
561.37,6872.84
561.79,6899.38
562.21,6918.40
562.63,6928.87
563.06,6930.63
563.48,6924.49
563.90,6912.10
564.32,6895.87
564.74,6878.69
565.16,6863.70
565.58,6853.99
566.01,6852.26
566.43,6860.58
566.85,6880.17
567.27,6911.26
567.69,6953.04
568.11,7003.75
568.53,7060.76
568.96,7120.86
569.38,7180.50
569.80,7236.10
570.22,7284.39
570.64,7322.62
571.06,7348.87
571.48,7362.12
571.90,7362.39
572.32,7350.67
572.74,7328.85
573.16,7299.53
573.58,7265.80
574.01,7230.97
574.43,7198.31
574.85,7170.74
575.27,7150.63
575.69,7139.59
576.11,7138.36
576.53,7146.76
576.95,7163.73
577.37,7187.44
577.79,7215.47
578.21,7245.03
578.63,7273.22
579.05,7297.32
579.47,7314.98
579.89,7324.48
580.31,7324.86
580.73,7315.98
581.15,7298.57
581.57,7274.15
581.99,7244.87
582.41,7213.39
582.83,7182.57
583.25,7155.31
583.67,7134.22
584.09,7121.48
584.51,7118.59
584.93,7126.31
585.34,7144.55
585.76,7172.41
586.18,7208.30
586.60,7250.03
587.02,7295.05
587.44,7340.63
587.86,7384.16
588.28,7423.28
588.70,7456.17
589.12,7481.61
589.54,7499.16
589.95,7509.11
590.37,7512.53
590.79,7511.14
591.21,7507.14
591.63,7503.11
592.05,7501.72
592.47,7505.55
592.89,7516.87
593.30,7537.48
593.72,7568.53
594.14,7610.46
594.56,7662.99
594.98,7725.11
595.40,7795.16
595.81,7871.01
596.23,7950.14
596.65,8029.86
597.07,8107.45
597.49,8180.38
597.90,8246.41
598.32,8303.75
598.74,8351.15
599.16,8387.98
599.58,8414.26
599.99,8430.62
600.41,8438.26
600.83,8438.87
601.25,8434.48
601.66,8427.29
602.08,8419.56
602.50,8413.40
602.92,8410.63
603.33,8412.66
603.75,8420.42
604.17,8434.26
604.59,8453.99
605.00,8478.90
605.42,8507.80
605.84,8539.13
606.25,8571.11
606.67,8601.82
607.09,8629.40
607.51,8652.12
607.92,8668.55
608.34,8677.66
608.76,8678.86
609.17,8672.09
609.59,8657.78
610.01,8636.85
610.42,8610.64
610.84,8580.82
611.26,8549.30
611.67,8518.03
612.09,8488.99
612.51,8463.95
612.92,8444.43
613.34,8431.58
613.75,8426.13
614.17,8428.37
614.59,8438.10
615.00,8454.73
615.42,8477.28
615.83,8504.47
616.25,8534.84
616.67,8566.80
617.08,8598.78
617.50,8629.28
617.91,8657.00
618.33,8680.85
618.75,8700.05
619.16,8714.12
619.58,8722.90
619.99,8726.56
620.41,8725.54
620.82,8720.54
621.24,8712.49
621.65,8702.49
622.07,8691.76
622.48,8681.59
622.90,8673.28
623.31,8668.08
623.73,8667.09
624.14,8671.22
624.56,8681.11
624.97,8697.09
625.39,8719.10
625.80,8746.76
626.22,8779.29
626.63,8815.62
627.05,8854.40
627.46,8894.16
627.88,8933.31
628.29,8970.31
628.71,9003.78
629.12,9032.54
629.54,9055.74
629.95,9072.93
630.37,9084.04
630.78,9089.45
631.19,9089.93
631.61,9086.62
632.02,9080.89
632.44,9074.29
632.85,9068.41
633.26,9064.77
633.68,9064.70
634.09,9069.27
634.51,9079.22
634.92,9094.93
635.33,9116.43
635.75,9143.41
636.16,9175.27
636.57,9211.19
636.99,9250.15
637.40,9291.07
637.82,9332.78
638.23,9374.16
638.64,9414.15
639.06,9451.82
639.47,9486.38
639.88,9517.24
640.30,9544.01
640.71,9566.52
641.12,9584.81
641.53,9599.13
641.95,9609.89
642.36,9617.68
642.77,9623.19
643.19,9627.24
643.60,9630.66
644.01,9634.35
644.42,9639.19
644.84,9646.00
645.25,9655.53
645.66,9668.43
646.08,9685.18
646.49,9706.07
646.90,9731.22
647.31,9760.50
647.73,9793.57
648.14,9829.87
648.55,9868.65
648.96,9909.04
649.37,9950.02
649.79,9990.57
650.20,10029.63
650.61,10066.27
651.02,10099.65
651.43,10129.15
651.85,10154.36
652.26,10175.15
652.67,10191.63
653.08,10204.19
653.49,10213.45
653.90,10220.23
654.32,10225.46
654.73,10230.15
655.14,10235.32
655.55,10241.92
655.96,10250.79
656.37,10262.61
656.78,10277.88
657.20,10296.86
657.61,10319.64
658.02,10346.05
658.43,10375.79
658.84,10408.38
659.25,10443.24
659.66,10479.72
660.07,10517.14
660.48,10554.84
660.90,10592.18
661.31,10628.56
661.72,10663.45
662.13,10696.34
662.54,10726.77
662.95,10754.34
663.36,10778.73
663.77,10799.69
664.18,10817.12
664.59,10831.05
665.00,10841.71
665.41,10849.48
665.82,10854.90
666.23,10858.64
666.64,10861.44
667.05,10864.04
667.46,10867.15
667.87,10871.39
668.28,10877.25
668.69,10885.09
669.10,10895.14
669.51,10907.50
669.92,10922.19
670.33,10939.11
670.74,10958.14
671.15,10979.08
671.56,11001.71
671.97,11025.79
672.38,11051.03
672.79,11077.15
673.20,11103.80
673.61,11130.63
674.02,11157.24
674.42,11183.18
674.83,11207.99
675.24,11231.17
675.65,11252.21
676.06,11270.67
676.47,11286.14
676.88,11298.36
677.29,11307.25
677.70,11312.90
678.11,11315.62
678.51,11315.92
678.92,11314.51
679.33,11312.20
679.74,11309.88
680.15,11308.43
680.56,11308.64
680.97,11311.22
681.37,11316.69
681.78,11325.36
682.19,11337.40
682.60,11352.75
683.01,11371.19
683.42,11392.37
683.82,11415.81
684.23,11440.93
684.64,11467.12
685.05,11493.68
685.45,11519.95
685.86,11545.25
686.27,11568.95
686.68,11590.49
687.09,11609.37
687.49,11625.20
687.90,11637.69
688.31,11646.69
688.72,11652.14
689.12,11654.13
689.53,11652.87
689.94,11648.68
690.35,11642.01
690.75,11633.38
691.16,11623.40
691.57,11612.72
691.97,11602.01
692.38,11591.91
692.79,11583.00
693.20,11575.82
693.60,11570.77
694.01,11568.19
694.42,11568.31
694.82,11571.31
695.23,11577.30
695.64,11586.37
696.04,11598.59
696.45,11613.98
696.86,11632.46
697.26,11653.88
697.67,11677.92
698.07,11704.05
698.48,11731.59
698.89,11759.65
699.29,11787.26
699.70,11813.37
700.11,11837.02
700.51,11857.39
700.92,11873.89
701.32,11886.24
701.73,11894.44
702.14,11898.78
702.54,11899.81
702.95,11898.19
703.35,11894.70
703.76,11890.09
704.16,11885.06
704.57,11880.20
704.97,11875.98
705.38,11872.77
705.79,11870.82
706.19,11870.32
706.60,11871.39
707.00,11874.16
707.41,11878.69
707.81,11885.05
708.22,11893.25
708.62,11903.28
709.03,11915.05
709.43,11928.45
709.84,11943.27
710.24,11959.30
710.65,11976.26
711.05,11993.88
711.46,12011.89
711.86,12030.03
712.27,12048.03
712.67,12065.66
713.07,12082.67
713.48,12098.80
713.88,12113.76
714.29,12127.25
714.69,12138.96
715.10,12148.55
715.50,12155.72
715.90,12160.20
716.31,12161.79
716.71,12160.39
717.12,12155.98
717.52,12148.71
717.92,12138.81
718.33,12126.68
718.73,12112.83
719.14,12097.86
719.54,12082.46
719.94,12067.35
720.35,12053.26
720.75,12040.87
721.15,12030.81
721.56,12023.59
721.96,12019.60
722.36,12019.09
722.77,12022.12
723.17,12028.60
723.57,12038.27
723.98,12050.69
724.38,12065.26
724.78,12081.27
725.19,12097.88
725.59,12114.23
725.99,12129.46
726.39,12142.79
726.80,12153.58
727.20,12161.36
727.60,12165.88
728.00,12167.11
728.41,12165.21
728.81,12160.53
729.21,12153.50
729.61,12144.60
730.02,12134.30
730.42,12122.96
730.82,12110.90
731.22,12098.26
731.63,12085.13
732.03,12071.47
732.43,12057.23
732.83,12042.34
733.23,12026.77
733.64,12010.57
