wavelength,counts
188.65,260.89
189.10,260.89
189.56,260.89
190.01,260.89
190.47,260.89
190.92,282.76
191.37,292.33
191.83,303.48
192.28,316.09
192.74,329.99
193.19,344.92
193.64,360.57
194.10,377.13
194.55,394.46
195.01,412.45
195.46,430.99
195.91,450.00
196.37,469.40
196.82,489.12
197.27,509.06
197.73,529.08
198.18,549.04
198.63,568.74
199.09,587.96
199.54,606.46
199.99,624.03
200.45,640.46
200.90,655.59
201.35,669.31
201.81,681.56
202.26,692.33
202.71,701.64
203.17,709.56
203.62,716.16
204.07,721.51
204.53,725.69
204.98,728.78
205.43,730.86
205.89,732.01
206.34,732.34
206.79,731.96
207.25,730.99
207.70,729.60
208.15,727.93
208.60,726.13
209.06,724.34
209.51,722.68
209.96,721.23
210.41,720.04
210.87,719.12
211.32,718.47
211.77,718.06
212.23,717.86
212.68,717.83
213.13,717.94
213.58,718.18
214.04,718.52
214.49,718.99
214.94,719.58
215.39,720.28
215.84,721.09
216.30,721.99
216.75,722.95
217.20,723.91
217.65,724.83
218.11,725.64
218.56,726.32
219.01,726.81
219.46,727.12
219.91,727.26
220.37,727.26
220.82,727.18
221.27,727.10
221.72,727.10
222.17,727.24
222.63,727.59
223.08,728.18
223.53,728.99
223.98,730.00
224.43,731.12
224.88,732.28
225.34,733.37
225.79,734.29
226.24,734.95
226.69,735.27
227.14,735.23
227.59,734.81
228.04,734.03
228.50,732.94
228.95,731.60
229.40,730.07
229.85,728.44
230.30,726.77
230.75,725.14
231.20,723.59
231.66,722.19
232.11,720.97
232.56,719.98
233.01,719.24
233.46,718.76
233.91,718.56
234.36,718.61
234.81,718.92
235.26,719.45
235.71,720.16
236.17,721.01
236.62,721.97
237.07,722.97
237.52,723.96
237.97,724.91
238.42,725.77
238.87,726.48
239.32,727.01
239.77,727.31
240.22,727.35
240.67,727.10
241.12,726.53
241.57,725.63
242.02,724.41
242.47,722.91
242.92,721.15
243.37,719.23
243.82,717.24
244.27,715.28
244.72,713.49
245.18,711.97
245.63,710.83
246.08,710.14
246.53,709.94
246.98,710.21
247.43,710.90
247.88,711.92
248.33,713.13
248.78,714.38
249.23,715.55
249.68,716.50
250.12,717.14
250.57,717.45
251.02,717.43
251.47,717.13
251.92,716.67
252.37,716.16
252.82,715.76
253.27,715.60
253.72,715.79
254.17,716.43
254.62,717.56
255.07,719.16
255.52,721.20
255.97,723.60
256.42,726.23
256.87,728.98
257.32,731.71
257.77,734.31
258.22,736.67
258.66,738.69
259.11,740.32
259.56,741.51
260.01,742.25
260.46,742.52
260.91,742.37
261.36,741.82
261.81,740.94
262.26,739.80
262.71,738.49
263.15,737.10
263.60,735.71
264.05,734.40
264.50,733.23
264.95,732.22
265.40,731.38
265.85,730.68
266.30,730.09
266.74,729.56
267.19,729.06
267.64,728.58
268.09,728.13
268.54,727.74
268.99,727.46
269.43,727.37
269.88,727.51
270.33,727.93
270.78,728.63
271.23,729.60
271.68,730.79
272.12,732.11
272.57,733.47
273.02,734.78
273.47,735.94
273.92,736.89
274.36,737.56
274.81,737.93
275.26,737.99
275.71,737.75
276.16,737.24
276.60,736.53
277.05,735.68
277.50,734.77
277.95,733.87
278.39,733.07
278.84,732.42
279.29,731.95
279.74,731.68
280.19,731.59
280.63,731.63
281.08,731.76
281.53,731.90
281.98,732.00
282.42,731.99
282.87,731.84
283.32,731.50
283.76,730.97
284.21,730.24
284.66,729.31
285.11,728.17
285.55,726.82
286.00,725.25
286.45,723.45
286.89,721.41
287.34,719.13
287.79,716.59
288.23,713.81
288.68,710.85
289.13,707.74
289.58,704.60
290.02,701.53
290.47,698.67
290.92,696.18
291.36,694.20
291.81,692.89
292.26,692.37
292.70,692.71
293.15,693.96
293.60,696.11
294.04,699.10
294.49,702.82
294.93,707.11
295.38,711.79
295.83,716.67
296.27,721.53
296.72,726.15
297.17,730.36
297.61,733.99
298.06,736.90
298.50,739.02
298.95,740.30
299.40,740.75
299.84,740.44
300.29,739.46
300.73,737.94
301.18,736.05
301.63,733.94
302.07,731.76
302.52,729.66
302.96,727.76
303.41,726.16
303.85,724.93
304.30,724.11
304.75,723.70
305.19,723.70
305.64,724.07
306.08,724.76
306.53,725.70
306.97,726.83
307.42,728.07
307.86,729.35
308.31,730.63
308.75,731.87
309.20,733.04
309.65,734.15
310.09,735.21
310.54,736.26
310.98,737.30
311.43,738.39
311.87,739.54
312.32,740.76
312.76,742.04
313.21,743.36
313.65,744.69
314.10,745.95
314.54,747.10
314.99,748.08
315.43,748.82
315.87,749.30
316.32,749.49
316.76,749.39
317.21,749.03
317.65,748.44
318.10,747.67
318.54,746.78
318.99,745.83
319.43,744.91
319.88,744.07
320.32,743.39
320.76,742.96
321.21,742.84
321.65,743.08
322.10,743.73
322.54,744.80
322.99,746.27
323.43,748.08
323.87,750.15
324.32,752.36
324.76,754.59
325.21,756.71
325.65,758.60
326.09,760.16
326.54,761.32
326.98,762.04
327.42,762.30
327.87,762.12
328.31,761.53
328.76,760.59
329.20,759.35
329.64,757.86
330.09,756.20
330.53,754.41
330.97,752.57
331.42,750.74
331.86,748.96
332.30,747.30
332.75,745.80
333.19,744.50
333.63,743.43
334.08,742.59
334.52,742.00
334.96,741.63
335.41,741.45
335.85,741.44
336.29,741.56
336.74,741.79
337.18,742.11
337.62,742.50
338.06,742.97
338.51,743.51
338.95,744.09
339.39,744.70
339.84,745.31
340.28,745.88
340.72,746.38
341.16,746.77
341.61,747.05
342.05,747.23
342.49,747.35
342.93,747.47
343.38,747.66
343.82,747.98
344.26,748.49
344.70,749.23
345.15,750.19
345.59,751.34
346.03,752.63
346.47,753.96
346.92,755.25
347.36,756.39
347.80,757.32
348.24,757.97
348.68,758.32
349.13,758.37
349.57,758.15
350.01,757.72
350.45,757.13
350.89,756.46
351.34,755.78
351.78,755.15
352.22,754.62
352.66,754.25
353.10,754.06
353.54,754.06
353.99,754.26
354.43,754.64
354.87,755.16
355.31,755.80
355.75,756.50
356.19,757.21
356.63,757.88
357.08,758.49
357.52,758.99
357.96,759.38
358.40,759.65
358.84,759.82
359.28,759.92
359.72,759.97
360.16,759.99
360.60,760.00
361.05,760.03
361.49,760.07
361.93,760.12
362.37,760.18
362.81,760.21
363.25,760.19
363.69,760.10
364.13,759.91
364.57,759.62
365.01,759.21
365.45,758.71
365.89,758.15
366.33,757.58
366.78,757.05
367.22,756.63
367.66,756.36
368.10,756.29
368.54,756.46
368.98,756.88
369.42,757.55
369.86,758.44
370.30,759.53
370.74,760.79
371.18,762.18
371.62,763.67
372.06,765.25
372.50,766.90
372.94,768.65
373.38,770.53
373.82,772.56
374.26,774.82
374.70,777.32
375.14,780.11
375.58,783.19
376.02,786.51
376.46,790.00
376.90,793.57
377.34,797.07
377.78,800.36
378.21,803.30
378.65,805.77
379.09,807.69
379.53,809.02
379.97,809.78
380.41,810.04
380.85,809.89
381.29,809.46
381.73,808.87
382.17,808.24
382.61,807.68
383.05,807.27
383.49,807.07
383.93,807.12
384.36,807.47
384.80,808.16
385.24,809.22
385.68,810.70
386.12,812.63
386.56,815.05
387.00,817.96
387.44,821.34
387.87,825.11
388.31,829.17
388.75,833.36
389.19,837.54
389.63,841.53
390.07,845.17
390.51,848.35
390.94,851.00
391.38,853.12
391.82,854.74
392.26,855.98
392.70,856.96
393.14,857.83
393.57,858.76
394.01,859.88
394.45,861.32
394.89,863.19
395.33,865.56
395.76,868.46
396.20,871.92
396.64,875.91
397.08,880.38
397.52,885.25
397.95,890.40
398.39,895.70
398.83,900.99
399.27,906.14
399.70,911.01
400.14,915.51
400.58,919.59
401.02,923.25
401.45,926.56
401.89,929.61
402.33,932.56
402.77,935.56
403.20,938.76
403.64,942.29
404.08,946.27
404.52,950.76
404.95,955.79
405.39,961.36
405.83,967.44
406.26,973.99
406.70,980.95
407.14,988.25
407.58,995.80
408.01,1003.52
408.45,1011.30
408.89,1019.07
409.32,1026.72
409.76,1034.21
410.20,1041.50
410.63,1048.58
411.07,1055.49
411.51,1062.28
411.94,1069.01
412.38,1075.76
412.82,1082.59
413.25,1089.55
413.69,1096.66
414.12,1103.95
414.56,1111.37
415.00,1118.91
415.43,1126.51
415.87,1134.09
416.31,1141.60
416.74,1148.96
417.18,1156.15
417.61,1163.13
418.05,1169.91
418.49,1176.55
418.92,1183.13
419.36,1189.76
419.79,1196.56
420.23,1203.67
420.67,1211.18
421.10,1219.16
421.54,1227.62
421.97,1236.54
422.41,1245.84
422.84,1255.43
423.28,1265.17
423.71,1274.95
424.15,1284.65
424.59,1294.19
425.02,1303.49
425.46,1312.52
425.89,1321.27
426.33,1329.77
426.76,1338.07
427.20,1346.26
427.63,1354.44
428.07,1362.74
428.50,1371.32
428.94,1380.31
429.37,1389.83
429.81,1399.99
430.24,1410.82
430.68,1422.33
431.11,1434.44
431.55,1447.04
431.98,1459.97
432.42,1473.04
432.85,1486.04
433.28,1498.79
433.72,1511.11
434.15,1522.86
434.59,1533.94
435.02,1544.28
435.46,1553.85
435.89,1562.67
436.33,1570.78
436.76,1578.27
437.19,1585.25
437.63,1591.86
438.06,1598.25
438.50,1604.57
438.93,1611.00
439.37,1617.68
439.80,1624.75
440.23,1632.31
440.67,1640.43
441.10,1649.15
441.53,1658.46
441.97,1668.31
442.40,1678.60
442.84,1689.22
443.27,1700.03
443.70,1710.88
444.14,1721.63
444.57,1732.13
445.00,1742.27
445.44,1751.97
445.87,1761.17
446.30,1769.86
446.74,1778.07
447.17,1785.86
447.60,1793.35
448.04,1800.67
448.47,1807.99
448.90,1815.48
449.34,1823.31
449.77,1831.59
450.20,1840.43
450.64,1849.85
451.07,1859.83
451.50,1870.34
451.93,1881.29
452.37,1892.64
452.80,1904.36
453.23,1916.46
453.67,1928.99
454.10,1942.05
454.53,1955.73
454.96,1970.09
455.40,1985.14
455.83,2000.82
456.26,2017.00
456.69,2033.47
457.13,2049.98
457.56,2066.30
457.99,2082.21
458.42,2097.57
458.86,2112.35
459.29,2126.58
459.72,2140.40
460.15,2153.98
460.58,2167.50
461.02,2181.12
461.45,2194.94
461.88,2208.99
462.31,2223.26
462.74,2237.69
463.18,2252.23
463.61,2266.88
464.04,2281.72
464.47,2296.89
464.90,2312.63
465.33,2329.23
465.77,2346.94
466.20,2366.01
466.63,2386.55
467.06,2408.54
467.49,2431.81
467.92,2456.09
468.35,2481.04
468.78,2506.32
469.22,2531.65
469.65,2556.92
470.08,2582.20
470.51,2607.74
470.94,2633.94
471.37,2661.28
471.80,2690.26
472.23,2721.26
472.66,2754.51
473.10,2790.00
473.53,2827.51
473.96,2866.63
474.39,2906.83
474.82,2947.60
475.25,2988.52
475.68,3029.38
476.11,3070.23
476.54,3111.34
476.97,3153.25
477.40,3196.55
477.83,3241.85
478.26,3289.57
478.69,3339.86
479.12,3392.52
479.55,3446.97
479.98,3502.34
480.41,3557.52
480.84,3611.43
481.27,3663.09
481.70,3711.82
482.13,3757.38
482.56,3799.98
482.99,3840.24
483.42,3879.10
483.85,3917.64
484.28,3956.91
484.71,3997.70
485.14,4040.44
485.57,4085.09
486.00,4131.17
486.43,4177.82
486.86,4223.98
487.29,4268.56
487.72,4310.67
488.15,4349.77
488.58,4385.80
489.01,4419.18
489.44,4450.78
489.87,4481.75
490.30,4513.38
490.72,4546.81
491.15,4582.90
491.58,4622.04
492.01,4664.08
492.44,4708.35
492.87,4753.75
493.30,4798.92
493.73,4842.45
494.16,4883.11
494.59,4920.01
495.01,4952.78
495.44,4981.63
495.87,5007.27
496.30,5030.86
496.73,5053.78
497.16,5077.44
497.59,5103.06
498.01,5131.43
498.44,5162.84
498.87,5196.97
499.30,5232.98
499.73,5269.62
500.16,5305.46
500.58,5339.09
501.01,5369.39
501.44,5395.70
501.87,5417.97
502.30,5436.78
502.72,5453.26
503.15,5468.95
503.58,5485.53
504.01,5504.59
504.44,5527.37
504.86,5554.57
505.29,5586.19
505.72,5621.56
506.15,5659.39
506.57,5697.96
507.00,5735.33
507.43,5769.66
507.86,5799.43
508.28,5823.67
508.71,5842.11
509.14,5855.18
509.57,5864.03
509.99,5870.32
510.42,5876.01
510.85,5883.11
511.27,5893.43
511.70,5908.30
512.13,5928.41
512.56,5953.74
512.98,5983.54
513.41,6016.45
513.84,6050.65
514.26,6084.18
514.69,6115.10
515.12,6141.84
515.54,6163.37
515.97,6179.31
516.40,6190.02
516.82,6196.53
517.25,6200.39
517.68,6203.51
518.10,6207.87
518.53,6215.29
518.95,6227.19
519.38,6244.45
519.81,6267.23
520.23,6295.05
520.66,6326.76
521.09,6360.72
521.51,6395.00
521.94,6427.61
522.36,6456.73
522.79,6480.94
523.22,6499.39
523.64,6511.92
524.07,6519.06
524.49,6522.02
524.92,6522.52
525.34,6522.57
525.77,6524.27
526.20,6529.52
526.62,6539.76
527.05,6555.80
527.47,6577.68
527.90,6604.63
528.32,6635.15
528.75,6667.16
529.17,6698.27
529.60,6726.08
530.02,6748.45
530.45,6763.84
530.87,6771.49
531.30,6771.55
531.72,6765.07
532.15,6753.90
532.57,6740.49
533.00,6727.53
533.42,6717.69
533.85,6713.26
534.27,6715.90
534.70,6726.46
535.12,6744.86
535.55,6770.15
535.97,6800.61
536.40,6834.00
536.82,6867.75
537.25,6899.30
537.67,6926.38
538.09,6947.20
538.52,6960.68
538.94,6966.55
539.37,6965.35
539.79,6958.37
540.22,6947.52
540.64,6935.12
541.06,6923.65
541.49,6915.45
541.91,6912.53
542.34,6916.28
542.76,6927.36
543.18,6945.61
543.61,6970.06
544.03,6999.01
544.46,7030.23
544.88,7061.20
545.30,7089.35
545.73,7112.38
546.15,7128.49
546.57,7136.61
547.00,7136.50
547.42,7128.83
547.84,7115.11
548.27,7097.52
548.69,7078.74
549.11,7061.59
549.54,7048.80
549.96,7042.68
550.38,7044.86
550.81,7056.15
551.23,7076.39
551.65,7104.51
552.07,7138.59
552.50,7176.06
552.92,7213.95
553.34,7249.17
553.77,7278.82
554.19,7300.47
554.61,7312.41
555.03,7313.80
555.46,7304.80
555.88,7286.51
556.30,7260.91
556.72,7230.69
557.15,7198.95
557.57,7168.94
557.99,7143.74
558.41,7125.96
558.84,7117.51
559.26,7119.44
559.68,7131.84
560.10,7153.85
560.52,7183.79
560.95,7219.31
561.37,7257.66
561.79,7295.91
562.21,7331.28
562.63,7361.36
563.06,7384.31
563.48,7399.04
563.90,7405.28
564.32,7403.57
564.74,7395.24
565.16,7382.23
565.58,7366.95
566.01,7352.03
566.43,7340.13
566.85,7333.63
567.27,7334.48
567.69,7344.03
568.11,7362.85
568.53,7390.76
568.96,7426.76
569.38,7469.17
569.80,7515.74
570.22,7563.80
570.64,7610.53
571.06,7653.09
571.48,7688.91
571.90,7715.86
572.32,7732.38
572.74,7737.65
573.16,7731.62
573.58,7715.04
574.01,7689.41
574.43,7656.84
574.85,7619.95
575.27,7581.59
575.69,7544.69
576.11,7511.98
576.53,7485.77
576.95,7467.81
577.37,7459.12
577.79,7459.92
578.21,7469.65
578.63,7487.01
579.05,7510.11
579.47,7536.60
579.89,7563.90
580.31,7589.42
580.73,7610.72
581.15,7625.80
581.57,7633.16
581.99,7631.98
582.41,7622.16
582.83,7604.33
583.25,7579.81
583.67,7550.51
584.09,7518.76
584.51,7487.16
584.93,7458.39
585.34,7434.95
585.76,7419.07
586.18,7412.45
586.60,7416.22
587.02,7430.84
587.44,7456.07
587.86,7491.03
588.28,7534.22
588.70,7583.69
589.12,7637.15
589.54,7692.12
589.95,7746.11
590.37,7796.80
590.79,7842.20
591.21,7880.79
591.63,7911.67
592.05,7934.58
592.47,7950.03
592.89,7959.16
593.30,7963.78
593.72,7966.12
594.14,7968.75
594.56,7974.31
594.98,7985.31
595.40,8003.94
595.81,8031.87
596.23,8070.13
596.65,8119.04
597.07,8178.16
597.49,8246.37
597.90,8321.92
598.32,8402.58
598.74,8485.80
599.16,8568.87
599.58,8649.11
599.99,8724.03
600.41,8791.45
600.83,8849.63
601.25,8897.33
601.66,8933.85
602.08,8959.05
602.50,8973.34
602.92,8977.62
603.33,8973.24
603.75,8961.93
604.17,8945.70
604.59,8926.75
605.00,8907.34
605.42,8889.69
605.84,8875.77
606.25,8867.24
606.67,8865.30
607.09,8870.58
607.51,8883.13
607.92,8902.38
608.34,8927.23
608.76,8956.12
609.17,8987.16
609.59,9018.33
610.01,9047.62
610.42,9073.17
610.84,9093.43
611.26,9107.26
611.67,9113.95
612.09,9113.33
612.51,9105.67
612.92,9091.73
613.34,9072.66
613.75,9049.96
614.17,9025.37
614.59,9000.78
615.00,8978.12
615.42,8959.27
615.83,8945.90
616.25,8939.39
616.67,8940.71
617.08,8950.37
617.50,8968.40
617.91,8994.31
618.33,9027.17
618.75,9065.67
619.16,9108.23
619.58,9153.12
619.99,9198.54
620.41,9242.78
620.82,9284.29
621.24,9321.74
621.65,9354.10
622.07,9380.63
622.48,9400.97
622.90,9415.09
623.31,9423.33
623.73,9426.35
624.14,9425.16
624.56,9421.02
624.97,9415.44
625.39,9410.03
625.80,9406.45
626.22,9406.28
626.63,9410.94
627.05,9421.53
627.46,9438.81
627.88,9463.10
628.29,9494.31
628.71,9531.89
629.12,9574.93
629.54,9622.19
629.95,9672.23
630.37,9723.47
630.78,9774.32
631.19,9823.26
631.61,9868.91
632.02,9910.14
632.44,9946.05
632.85,9976.09
633.26,9999.97
633.68,10017.76
634.09,10029.78
634.51,10036.65
634.92,10039.21
635.33,10038.49
635.75,10035.65
636.16,10031.98
636.57,10028.75
636.99,10027.25
637.40,10028.65
637.82,10034.01
638.23,10044.17
638.64,10059.76
639.06,10081.11
639.47,10108.29
639.88,10141.04
640.30,10178.86
640.71,10220.95
641.12,10266.36
641.53,10313.94
641.95,10362.51
642.36,10410.86
642.77,10457.85
643.19,10502.47
643.60,10543.86
644.01,10581.41
644.42,10614.68
644.84,10643.50
645.25,10667.86
645.66,10687.99
646.08,10704.23
646.49,10717.11
646.90,10727.21
647.31,10735.25
647.73,10741.98
648.14,10748.20
648.55,10754.69
648.96,10762.25
649.37,10771.60
649.79,10783.38
650.20,10798.14
650.61,10816.31
651.02,10838.18
651.43,10863.92
651.85,10893.55
652.26,10926.97
652.67,10963.94
653.08,11004.07
653.49,11046.86
653.90,11091.66
654.32,11137.70
654.73,11184.08
655.14,11229.85
655.55,11274.00
655.96,11315.54
656.37,11353.57
656.78,11387.35
657.20,11416.33
657.61,11440.25
658.02,11459.18
658.43,11473.47
658.84,11483.80
659.25,11491.09
659.66,11496.46
660.07,11501.12
660.48,11506.29
660.90,11513.13
661.31,11522.64
661.72,11535.61
662.13,11552.58
662.54,11573.84
662.95,11599.41
663.36,11629.07
663.77,11662.37
664.18,11698.70
664.59,11737.30
665.00,11777.36
665.41,11817.99
665.82,11858.35
666.23,11897.62
666.64,11935.07
667.05,11970.07
667.46,12002.06
667.87,12030.63
668.28,12055.43
668.69,12076.24
669.10,12092.96
669.51,12105.58
669.92,12114.28
670.33,12119.37
670.74,12121.33
671.15,12120.81
671.56,12118.63
671.97,12115.66
672.38,12112.88
672.79,12111.24
673.20,12111.61
673.61,12114.75
674.02,12121.25
674.42,12131.52
674.83,12145.74
675.24,12163.91
675.65,12185.81
676.06,12211.10
676.47,12239.30
676.88,12269.82
677.29,12302.04
677.70,12335.30
678.11,12368.94
678.51,12402.34
678.92,12434.91
679.33,12466.10
679.74,12495.42
680.15,12522.45
680.56,12546.80
680.97,12568.12
681.37,12586.15
681.78,12600.65
682.19,12611.50
682.60,12618.64
683.01,12622.15
683.42,12622.24
683.82,12619.29
684.23,12613.83
684.64,12606.57
685.05,12598.35
685.45,12590.14
685.86,12582.96
686.27,12577.82
686.68,12575.68
687.09,12577.34
687.49,12583.41
687.90,12594.25
688.31,12609.95
688.72,12630.32
689.12,12654.93
689.53,12683.13
689.94,12714.11
690.35,12746.98
690.75,12780.80
691.16,12814.65
691.57,12847.65
691.97,12879.01
692.38,12908.05
692.79,12934.21
693.20,12957.09
693.60,12976.41
694.01,12992.07
694.42,13004.14
694.82,13012.84
695.23,13018.52
695.64,13021.68
696.04,13022.82
696.45,13022.52
696.86,13021.28
697.26,13019.59
697.67,13017.80
698.07,13016.21
698.48,13015.03
698.89,13014.45
699.29,13014.63
699.70,13015.76
700.11,13018.09
700.51,13021.93
700.92,13027.62
701.32,13035.56
701.73,13046.13
702.14,13059.65
702.54,13076.34
702.95,13096.27
703.35,13119.36
703.76,13145.33
704.16,13173.74
704.57,13203.98
704.97,13235.34
705.38,13267.06
705.79,13298.34
706.19,13328.45
706.60,13356.72
707.00,13382.57
707.41,13405.56
707.81,13425.34
708.22,13441.66
708.62,13454.40
709.03,13463.48
709.43,13468.91
709.84,13470.76
710.24,13469.15
710.65,13464.28
711.05,13456.44
711.46,13445.99
711.86,13433.36
712.27,13419.10
712.67,13403.82
713.07,13388.19
713.48,13372.95
713.88,13358.81
714.29,13346.48
714.69,13336.60
715.10,13329.72
715.50,13326.23
715.90,13326.38
716.31,13330.26
716.71,13337.77
717.12,13348.68
717.52,13362.63
717.92,13379.16
718.33,13397.76
718.73,13417.86
719.14,13438.90
719.54,13460.29
719.94,13481.49
720.35,13501.91
720.75,13521.04
721.15,13538.35
721.56,13553.36
721.96,13565.65
722.36,13574.87
722.77,13580.78
723.17,13583.24
723.57,13582.25
723.98,13577.93
724.38,13570.50
724.78,13560.26
725.19,13547.60
725.59,13532.93
725.99,13516.68
726.39,13499.30
726.80,13481.24
727.20,13462.95
727.60,13444.88
728.00,13427.48
728.41,13411.21
728.81,13396.52
729.21,13383.87
729.61,13373.70
730.02,13366.44
730.42,13362.46
730.82,13362.12
731.22,13365.64
731.63,13373.17
732.03,13384.71
