wavelength,counts
188.65,35.86
189.10,35.86
189.56,35.86
190.01,35.86
190.47,35.86
190.92,65.89
191.37,78.60
191.83,93.15
192.28,109.33
192.74,126.87
193.19,145.43
193.64,164.58
194.10,184.66
194.55,205.51
195.01,226.98
195.46,248.92
195.91,271.22
196.37,293.74
196.82,316.35
197.27,338.91
197.73,361.27
198.18,383.25
198.63,404.65
199.09,425.25
199.54,444.82
199.99,463.14
200.45,480.00
200.90,495.22
201.35,508.67
201.81,520.30
202.26,530.10
202.71,538.15
203.17,544.56
203.62,549.52
204.07,553.22
204.53,555.88
204.98,557.71
205.43,558.90
205.89,559.62
206.34,560.01
206.79,560.16
207.25,560.13
207.70,559.96
208.15,559.65
208.60,559.19
209.06,558.57
209.51,557.76
209.96,556.77
210.41,555.57
210.87,554.19
211.32,552.65
211.77,551.00
212.23,549.29
212.68,547.59
213.13,545.97
213.58,544.51
214.04,543.24
214.49,542.22
214.94,541.45
215.39,540.91
215.84,540.56
216.30,540.33
216.75,540.11
217.20,539.82
217.65,539.35
218.11,538.63
218.56,537.63
219.01,536.33
219.46,534.77
219.91,533.02
220.37,531.19
220.82,529.40
221.27,527.79
221.72,526.49
222.17,525.62
222.63,525.26
223.08,525.46
223.53,526.24
223.98,527.55
224.43,529.34
224.88,531.46
225.34,533.79
225.79,536.16
226.24,538.40
226.69,540.36
227.14,541.93
227.59,543.02
228.04,543.63
228.50,543.78
228.95,543.55
229.40,543.05
229.85,542.40
230.30,541.72
230.75,541.11
231.20,540.64
231.66,540.35
232.11,540.22
232.56,540.23
233.01,540.34
233.46,540.50
233.91,540.66
234.36,540.80
234.81,540.91
235.26,540.99
235.71,541.07
236.17,541.18
236.62,541.33
237.07,541.55
237.52,541.82
237.97,542.14
238.42,542.44
238.87,542.69
239.32,542.84
239.77,542.84
240.22,542.68
240.67,542.37
241.12,541.95
241.57,541.50
242.02,541.11
242.47,540.89
242.92,540.94
243.37,541.33
243.82,542.09
244.27,543.24
244.72,544.73
245.18,546.49
245.63,548.43
246.08,550.44
246.53,552.40
246.98,554.22
247.43,555.82
247.88,557.12
248.33,558.10
248.78,558.72
249.23,558.96
249.68,558.81
250.12,558.26
250.57,557.31
251.02,555.95
251.47,554.19
251.92,552.06
252.37,549.59
252.82,546.87
253.27,543.98
253.72,541.03
254.17,538.15
254.62,535.48
255.07,533.15
255.52,531.29
255.97,530.00
256.42,529.33
256.87,529.32
257.32,529.95
257.77,531.16
258.22,532.83
258.66,534.83
259.11,537.00
259.56,539.16
260.01,541.15
260.46,542.82
260.91,544.06
261.36,544.81
261.81,545.07
262.26,544.87
262.71,544.31
263.15,543.53
263.60,542.68
264.05,541.94
264.50,541.46
264.95,541.38
265.40,541.80
265.85,542.76
266.30,544.26
266.74,546.26
267.19,548.65
267.64,551.32
268.09,554.11
268.54,556.88
268.99,559.49
269.43,561.80
269.88,563.72
270.33,565.17
270.78,566.13
271.23,566.61
271.68,566.65
272.12,566.32
272.57,565.75
273.02,565.04
273.47,564.34
273.92,563.77
274.36,563.45
274.81,563.46
275.26,563.85
275.71,564.62
276.16,565.71
276.60,567.04
277.05,568.47
277.50,569.85
277.95,571.03
278.39,571.87
278.84,572.24
279.29,572.09
279.74,571.40
280.19,570.18
280.63,568.52
281.08,566.49
281.53,564.22
281.98,561.81
282.42,559.38
282.87,557.01
283.32,554.80
283.76,552.82
284.21,551.14
284.66,549.81
285.11,548.89
285.55,548.42
286.00,548.43
286.45,548.89
286.89,549.78
287.34,551.03
287.79,552.53
288.23,554.18
288.68,555.88
289.13,557.51
289.58,559.00
290.02,560.31
290.47,561.40
290.92,562.28
291.36,562.94
291.81,563.41
292.26,563.68
292.70,563.74
293.15,563.59
293.60,563.21
294.04,562.60
294.49,561.78
294.93,560.79
295.38,559.71
295.83,558.60
296.27,557.54
296.72,556.62
297.17,555.86
297.61,555.28
298.06,554.85
298.50,554.51
298.95,554.16
299.40,553.73
299.84,553.13
300.29,552.30
300.73,551.24
301.18,549.99
301.63,548.62
302.07,547.25
302.52,546.03
302.96,545.11
303.41,544.63
303.85,544.71
304.30,545.42
304.75,546.78
305.19,548.76
305.64,551.26
306.08,554.17
306.53,557.33
306.97,560.56
307.42,563.73
307.86,566.71
308.31,569.39
308.75,571.74
309.20,573.75
309.65,575.45
310.09,576.88
310.54,578.11
310.98,579.20
311.43,580.18
311.87,581.09
312.32,581.93
312.76,582.68
313.21,583.33
313.65,583.84
314.10,584.18
314.54,584.31
314.99,584.21
315.43,583.86
315.87,583.24
316.32,582.35
316.76,581.20
317.21,579.81
317.65,578.21
318.10,576.45
318.54,574.57
318.99,572.62
319.43,570.63
319.88,568.64
320.32,566.69
320.76,564.78
321.21,562.93
321.65,561.18
322.10,559.52
322.54,558.01
322.99,556.67
323.43,555.55
323.87,554.70
324.32,554.16
324.76,553.97
325.21,554.12
325.65,554.61
326.09,555.40
326.54,556.44
326.98,557.66
327.42,558.97
327.87,560.31
328.31,561.62
328.76,562.86
329.20,564.02
329.64,565.10
330.09,566.13
330.53,567.13
330.97,568.13
331.42,569.15
331.86,570.18
332.30,571.20
332.75,572.14
333.19,572.94
333.63,573.51
334.08,573.75
334.52,573.60
334.96,573.00
335.41,571.93
335.85,570.40
336.29,568.46
336.74,566.21
337.18,563.76
337.62,561.24
338.06,558.79
338.51,556.54
338.95,554.58
339.39,552.99
339.84,551.80
340.28,551.00
340.72,550.54
341.16,550.37
341.61,550.39
342.05,550.52
342.49,550.68
342.93,550.81
343.38,550.86
343.82,550.83
344.26,550.73
344.70,550.61
345.15,550.53
345.59,550.54
346.03,550.73
346.47,551.13
346.92,551.80
347.36,552.75
347.80,553.97
348.24,555.44
348.68,557.13
349.13,558.99
349.57,560.97
350.01,563.03
350.45,565.12
350.89,567.24
351.34,569.35
351.78,571.46
352.22,573.56
352.66,575.64
353.10,577.70
353.54,579.70
353.99,581.62
354.43,583.40
354.87,585.00
355.31,586.36
355.75,587.46
356.19,588.28
356.63,588.82
357.08,589.14
357.52,589.29
357.96,589.36
358.40,589.43
358.84,589.59
359.28,589.89
359.72,590.38
360.16,591.07
360.60,591.93
361.05,592.92
361.49,593.97
361.93,595.01
362.37,595.98
362.81,596.80
363.25,597.44
363.69,597.86
364.13,598.07
364.57,598.06
365.01,597.87
365.45,597.53
365.89,597.08
366.33,596.58
366.78,596.08
367.22,595.62
367.66,595.25
368.10,595.01
368.54,594.94
368.98,595.04
369.42,595.34
369.86,595.82
370.30,596.47
370.74,597.28
371.18,598.20
371.62,599.20
372.06,600.22
372.50,601.21
372.94,602.12
373.38,602.89
373.82,603.48
374.26,603.88
374.70,604.08
375.14,604.09
375.58,603.97
376.02,603.75
376.46,603.51
376.90,603.32
377.34,603.26
377.78,603.40
378.21,603.78
378.65,604.46
379.09,605.47
379.53,606.83
379.97,608.55
380.41,610.61
380.85,613.01
381.29,615.71
381.73,618.68
382.17,621.86
382.61,625.21
383.05,628.65
383.49,632.11
383.93,635.50
384.36,638.76
384.80,641.79
385.24,644.54
385.68,646.94
386.12,648.94
386.56,650.55
387.00,651.78
387.44,652.68
387.87,653.33
388.31,653.86
388.75,654.38
389.19,655.06
389.63,656.01
390.07,657.36
390.51,659.18
390.94,661.50
391.38,664.32
391.82,667.56
392.26,671.14
392.70,674.93
393.14,678.79
393.57,682.60
394.01,686.24
394.45,689.63
394.89,692.72
395.33,695.49
395.76,697.96
396.20,700.18
396.64,702.24
397.08,704.22
397.52,706.21
397.95,708.31
398.39,710.60
398.83,713.13
399.27,715.93
399.70,718.98
400.14,722.24
400.58,725.66
401.02,729.15
401.45,732.64
401.89,736.08
402.33,739.43
402.77,742.71
403.20,745.98
403.64,749.33
404.08,752.88
404.52,756.77
404.95,761.12
405.39,766.05
405.83,771.61
406.26,777.78
406.70,784.53
407.14,791.72
407.58,799.20
408.01,806.79
408.45,814.32
408.89,821.63
409.32,828.62
409.76,835.24
410.20,841.52
410.63,847.54
411.07,853.44
411.51,859.37
411.94,865.51
412.38,872.02
412.82,879.01
413.25,886.54
413.69,894.64
414.12,903.25
414.56,912.28
415.00,921.59
415.43,931.05
415.87,940.50
416.31,949.82
416.74,958.92
417.18,967.76
417.61,976.32
418.05,984.64
418.49,992.78
418.92,1000.80
419.36,1008.77
419.79,1016.75
420.23,1024.78
420.67,1032.87
421.10,1041.01
421.54,1049.21
421.97,1057.44
422.41,1065.72
422.84,1074.04
423.28,1082.44
423.71,1090.96
424.15,1099.66
424.59,1108.58
425.02,1117.80
425.46,1127.37
425.89,1137.34
426.33,1147.74
426.76,1158.58
427.20,1169.85
427.63,1181.52
428.07,1193.51
428.50,1205.73
428.94,1218.07
429.37,1230.40
429.81,1242.60
430.24,1254.54
430.68,1266.15
431.11,1277.38
431.55,1288.23
431.98,1298.71
432.42,1308.92
432.85,1318.94
433.28,1328.87
433.72,1338.83
434.15,1348.89
434.59,1359.10
435.02,1369.47
435.46,1379.99
435.89,1390.57
436.33,1401.14
436.76,1411.60
437.19,1421.84
437.63,1431.79
438.06,1441.39
438.50,1450.64
438.93,1459.55
439.37,1468.16
439.80,1476.53
440.23,1484.74
440.67,1492.87
441.10,1500.98
441.53,1509.16
441.97,1517.46
442.40,1525.96
442.84,1534.70
443.27,1543.76
443.70,1553.15
444.14,1562.91
444.57,1573.00
445.00,1583.39
445.44,1593.99
445.87,1604.69
446.30,1615.34
446.74,1625.81
447.17,1635.98
447.60,1645.75
448.04,1655.06
448.47,1663.93
448.90,1672.42
449.34,1680.66
449.77,1688.85
450.20,1697.19
450.64,1705.93
451.07,1715.29
451.50,1725.49
451.93,1736.68
452.37,1748.99
452.80,1762.44
453.23,1777.04
453.67,1792.73
454.10,1809.40
454.53,1826.93
454.96,1845.18
455.40,1863.99
455.83,1883.21
456.26,1902.68
456.69,1922.25
457.13,1941.78
457.56,1961.14
457.99,1980.24
458.42,1999.01
458.86,2017.45
459.29,2035.59
459.72,2053.49
460.15,2071.26
460.58,2088.99
461.02,2106.79
461.45,2124.73
461.88,2142.87
462.31,2161.23
462.74,2179.85
463.18,2198.76
463.61,2218.03
464.04,2237.73
464.47,2258.01
464.90,2279.01
465.33,2300.86
465.77,2323.65
466.20,2347.45
466.63,2372.23
467.06,2397.92
467.49,2424.42
467.92,2451.63
468.35,2479.45
468.78,2507.87
469.22,2536.91
469.65,2566.62
470.08,2597.11
470.51,2628.43
470.94,2660.59
471.37,2693.52
471.80,2727.11
472.23,2761.17
472.66,2795.54
473.10,2830.09
473.53,2864.81
473.96,2899.79
474.39,2935.26
474.82,2971.52
475.25,3008.92
475.68,3047.75
476.11,3088.19
476.54,3130.28
476.97,3173.87
477.40,3218.67
477.83,3264.28
478.26,3310.31
478.69,3356.39
479.12,3402.26
479.55,3447.84
479.98,3493.12
480.41,3538.23
480.84,3583.31
481.27,3628.46
481.70,3673.68
482.13,3718.88
482.56,3763.86
482.99,3808.40
483.42,3852.29
483.85,3895.43
484.28,3937.85
484.71,3979.77
485.14,4021.54
485.57,4063.55
486.00,4106.18
486.43,4149.67
486.86,4194.06
487.29,4239.17
487.72,4284.58
488.15,4329.76
488.58,4374.14
489.01,4417.26
489.44,4458.86
489.87,4498.96
490.30,4537.84
490.72,4575.99
491.15,4613.97
491.58,4652.32
492.01,4691.38
492.44,4731.19
492.87,4771.49
493.30,4811.74
493.73,4851.25
494.16,4889.32
494.59,4925.39
495.01,4959.23
495.44,4990.97
495.87,5021.13
496.30,5050.51
496.73,5080.02
497.16,5110.53
497.59,5142.67
498.01,5176.66
498.44,5212.32
498.87,5249.02
499.30,5285.87
499.73,5321.89
500.16,5356.21
500.58,5388.26
501.01,5417.90
501.44,5445.48
501.87,5471.74
502.30,5497.71
502.72,5524.47
503.15,5552.93
503.58,5583.65
504.01,5616.72
504.44,5651.75
504.86,5687.88
505.29,5724.06
505.72,5759.15
506.15,5792.26
506.57,5822.87
507.00,5851.00
507.43,5877.19
507.86,5902.43
508.28,5927.94
508.71,5954.96
509.14,5984.48
509.57,6016.97
509.99,6052.34
510.42,6089.84
510.85,6128.19
511.27,6165.77
511.70,6200.94
512.13,6232.26
512.56,6258.85
512.98,6280.50
513.41,6297.76
513.84,6311.86
514.26,6324.57
514.69,6337.84
515.12,6353.53
515.54,6373.11
515.97,6397.35
516.40,6426.30
516.82,6459.17
517.25,6494.58
517.68,6530.73
518.10,6565.72
518.53,6597.93
518.95,6626.22
519.38,6650.18
519.81,6670.18
520.23,6687.26
520.66,6703.00
521.09,6719.18
521.51,6737.47
521.94,6759.11
522.36,6784.64
522.79,6813.82
523.22,6845.58
523.64,6878.19
524.07,6909.50
524.49,6937.35
524.92,6959.85
525.34,6975.77
525.77,6984.75
526.20,6987.38
526.62,6985.16
527.05,6980.29
527.47,6975.35
527.90,6972.92
528.32,6975.16
528.75,6983.56
529.17,6998.62
529.60,7019.86
530.02,7045.87
530.45,7074.53
530.87,7103.35
531.30,7129.83
531.72,7151.86
532.15,7168.04
532.57,7177.83
533.00,7181.68
533.42,7180.94
533.85,7177.59
534.27,7173.99
534.70,7172.52
535.12,7175.15
535.55,7183.22
535.97,7197.16
536.40,7216.50
536.82,7239.87
537.25,7265.24
537.67,7290.25
538.09,7312.50
538.52,7329.97
538.94,7341.30
539.37,7345.99
539.79,7344.52
540.22,7338.21
540.64,7329.10
541.06,7319.64
541.49,7312.31
541.91,7309.29
542.34,7312.14
542.76,7321.61
543.18,7337.49
543.61,7358.69
544.03,7383.39
544.46,7409.28
544.88,7433.92
545.30,7455.06
545.73,7470.98
546.15,7480.72
546.57,7484.24
547.00,7482.39
547.42,7476.86
547.84,7469.88
548.27,7463.97
548.69,7461.57
549.11,7464.68
549.54,7474.61
549.96,7491.76
550.38,7515.52
550.81,7544.37
551.23,7576.05
551.65,7607.81
552.07,7636.79
552.50,7660.38
552.92,7676.58
553.34,7684.26
553.77,7683.32
554.19,7674.76
554.61,7660.54
555.03,7643.37
555.46,7626.35
555.88,7612.64
556.30,7604.98
556.72,7605.41
557.15,7614.98
557.57,7633.60
557.99,7660.06
558.41,7692.20
558.84,7727.18
559.26,7761.80
559.68,7792.98
560.10,7818.10
560.52,7835.38
560.95,7844.06
561.37,7844.56
561.79,7838.42
562.21,7828.09
562.63,7816.71
563.06,7807.68
563.48,7804.29
563.90,7809.33
564.32,7824.74
564.74,7851.39
565.16,7888.97
565.58,7936.01
566.01,7990.06
566.43,8047.91
566.85,8106.01
567.27,8160.80
567.69,8209.12
568.11,8248.57
568.53,8277.77
568.96,8296.47
569.38,8305.62
569.80,8307.23
570.22,8304.13
570.64,8299.66
571.06,8297.24
571.48,8299.96
571.90,8310.22
572.32,8329.38
572.74,8357.60
573.16,8393.76
573.58,8435.59
574.01,8479.85
574.43,8522.73
574.85,8560.26
575.27,8588.73
575.69,8605.18
576.11,8607.67
576.53,8595.59
576.95,8569.74
577.37,8532.26
577.79,8486.46
578.21,8436.51
578.63,8386.99
579.05,8342.47
579.47,8307.04
579.89,8283.89
580.31,8275.04
580.73,8281.10
581.15,8301.27
581.57,8333.46
581.99,8374.45
582.41,8420.33
582.83,8466.82
583.25,8509.73
583.67,8545.37
584.09,8570.91
584.51,8584.63
584.93,8586.10
585.34,8576.21
585.76,8557.08
586.18,8531.88
586.60,8504.53
587.02,8479.34
587.44,8460.61
587.86,8452.20
588.28,8457.19
588.70,8477.57
589.12,8514.04
589.54,8565.99
589.95,8631.50
590.37,8707.62
590.79,8790.59
591.21,8876.27
591.63,8960.53
592.05,9039.67
592.47,9110.76
592.89,9171.88
593.30,9222.35
593.72,9262.70
594.14,9294.65
594.56,9320.88
594.98,9344.76
595.40,9370.02
595.81,9400.40
596.23,9439.24
596.65,9489.19
597.07,9551.95
597.49,9628.07
597.90,9716.94
598.32,9816.74
598.74,9924.64
599.16,10036.98
599.58,10149.55
599.99,10257.92
600.41,10357.76
600.83,10445.15
601.25,10516.89
601.66,10570.69
602.08,10605.36
602.50,10620.91
602.92,10618.49
603.33,10600.38
603.75,10569.76
604.17,10530.53
604.59,10486.99
605.00,10443.51
605.42,10404.22
605.84,10372.70
606.25,10351.68
606.67,10342.86
607.09,10346.79
607.51,10362.82
607.92,10389.18
608.34,10423.15
608.76,10461.29
609.17,10499.72
609.59,10534.49
610.01,10561.84
610.42,10578.59
610.84,10582.37
611.26,10571.82
611.67,10546.70
612.09,10507.95
612.51,10457.59
612.92,10398.59
613.34,10334.59
613.75,10269.67
614.17,10207.97
614.59,10153.37
615.00,10109.21
615.42,10078.01
615.83,10061.29
616.25,10059.51
616.67,10072.03
617.08,10097.22
617.50,10132.61
617.91,10175.13
618.33,10221.35
618.75,10267.74
619.16,10310.95
619.58,10348.00
619.99,10376.54
620.41,10394.90
620.82,10402.28
621.24,10398.70
621.65,10385.05
622.07,10362.97
622.48,10334.75
622.90,10303.21
623.31,10271.43
623.73,10242.61
624.14,10219.78
624.56,10205.65
624.97,10202.32
625.39,10211.22
625.80,10232.92
626.22,10267.08
626.63,10312.54
627.05,10367.32
627.46,10428.82
627.88,10493.97
628.29,10559.52
628.71,10622.21
629.12,10679.04
629.54,10727.49
629.95,10765.68
630.37,10792.48
630.78,10807.60
631.19,10811.60
631.61,10805.82
632.02,10792.26
632.44,10773.46
632.85,10752.26
633.26,10731.61
633.68,10714.35
634.09,10703.01
634.51,10699.58
634.92,10705.48
635.33,10721.40
635.75,10747.35
636.16,10782.66
636.57,10826.09
636.99,10875.97
637.40,10930.29
637.82,10986.88
638.23,11043.54
638.64,11098.12
639.06,11148.71
639.47,11193.64
639.88,11231.60
640.30,11261.72
640.71,11283.56
641.12,11297.20
641.53,11303.19
641.95,11302.56
642.36,11296.80
642.77,11287.72
643.19,11277.39
643.60,11268.02
644.01,11261.80
644.42,11260.77
644.84,11266.69
645.25,11280.89
645.66,11304.23
646.08,11336.96
646.49,11378.76
646.90,11428.72
647.31,11485.39
647.73,11546.91
648.14,11611.10
648.55,11675.59
648.96,11738.05
649.37,11796.25
649.79,11848.31
650.20,11892.72
650.61,11928.49
651.02,11955.20
651.43,11972.99
651.85,11982.52
652.26,11984.96
652.67,11981.86
653.08,11975.09
653.49,11966.67
653.90,11958.72
654.32,11953.29
654.73,11952.27
655.14,11957.29
655.55,11969.61
655.96,11990.08
656.37,12019.04
656.78,12056.30
657.20,12101.19
657.61,12152.52
658.02,12208.70
658.43,12267.84
658.84,12327.84
659.25,12386.58
659.66,12442.00
660.07,12492.25
660.48,12535.81
660.90,12571.58
661.31,12598.89
661.72,12617.59
662.13,12627.97
662.54,12630.82
662.95,12627.29
663.36,12618.87
663.77,12607.29
664.18,12594.42
664.59,12582.21
665.00,12572.58
665.41,12567.33
665.82,12568.07
666.23,12576.15
666.64,12592.56
667.05,12617.93
667.46,12652.41
667.87,12695.65
668.28,12746.83
668.69,12804.62
669.10,12867.23
669.51,12932.54
669.92,12998.19
670.33,13061.72
670.74,13120.73
671.15,13173.06
671.56,13216.91
671.97,13250.98
672.38,13274.50
672.79,13287.30
673.20,13289.77
673.61,13282.84
674.02,13267.86
674.42,13246.56
674.83,13220.90
675.24,13192.99
675.65,13165.02
676.06,13139.11
676.47,13117.26
676.88,13101.27
677.29,13092.61
677.70,13092.45
678.11,13101.50
678.51,13120.02
678.92,13147.80
679.33,13184.15
679.74,13227.95
680.15,13277.70
680.56,13331.62
680.97,13387.74
681.37,13444.00
681.78,13498.38
682.19,13549.01
682.60,13594.20
683.01,13632.57
683.42,13663.09
683.82,13685.08
684.23,13698.26
684.64,13702.75
685.05,13699.07
685.45,13688.08
685.86,13670.98
686.27,13649.24
686.68,13624.56
687.09,13598.77
687.49,13573.77
687.90,13551.40
688.31,13533.42
688.72,13521.35
689.12,13516.40
689.53,13519.47
689.94,13531.01
690.35,13551.07
690.75,13579.27
691.16,13614.85
691.57,13656.70
691.97,13703.46
692.38,13753.55
692.79,13805.31
693.20,13857.06
693.60,13907.17
694.01,13954.15
694.42,13996.66
694.82,14033.60
695.23,14064.12
695.64,14087.59
696.04,14103.67
696.45,14112.26
696.86,14113.49
697.26,14107.76
697.67,14095.68
698.07,14078.08
698.48,14056.01
698.89,14030.72
699.29,14003.62
699.70,13976.28
700.11,13950.34
700.51,13927.45
700.92,13909.20
701.32,13896.99
701.73,13891.98
702.14,13894.99
702.54,13906.44
702.95,13926.32
703.35,13954.21
703.76,13989.32
704.16,14030.53
704.57,14076.48
704.97,14125.71
705.38,14176.65
705.79,14227.75
706.19,14277.53
706.60,14324.58
707.00,14367.58
707.41,14405.36
707.81,14436.86
708.22,14461.17
708.62,14477.56
709.03,14485.53
709.43,14484.85
709.84,14475.59
710.24,14458.17
710.65,14433.40
711.05,14402.41
711.46,14366.70
711.86,14327.99
712.27,14288.21
712.67,14249.39
713.07,14213.52
713.48,14182.50
713.88,14158.01
714.29,14141.47
714.69,14133.93
715.10,14136.09
715.50,14148.23
715.90,14170.22
716.31,14201.52
716.71,14241.24
717.12,14288.11
717.52,14340.61
717.92,14396.96
718.33,14455.26
718.73,14513.51
719.14,14569.74
719.54,14622.04
719.94,14668.67
720.35,14708.09
720.75,14739.03
721.15,14760.53
721.56,14771.96
721.96,14773.04
722.36,14763.87
722.77,14744.90
723.17,14716.98
723.57,14681.25
723.98,14639.19
724.38,14592.50
724.78,14543.05
725.19,14492.80
725.59,14443.69
725.99,14397.56
726.39,14356.07
726.80,14320.65
727.20,14292.48
727.60,14272.44
728.00,14261.14
728.41,14258.95
728.81,14265.98
729.21,14282.13
729.61,14307.04
730.02,14340.14
730.42,14380.55
730.82,14427.15
