wavelength,counts
188.65,20.49
189.10,20.49
189.56,20.49
190.01,20.49
190.47,20.49
190.92,63.00
191.37,80.02
191.83,98.85
192.28,119.02
192.74,140.02
193.19,161.27
193.64,182.18
194.10,203.33
194.55,224.57
195.01,245.79
195.46,266.88
195.91,287.77
196.37,308.35
196.82,328.53
197.27,348.18
197.73,367.21
198.18,385.51
198.63,402.96
199.09,419.47
199.54,434.97
199.99,449.38
200.45,462.66
200.90,474.79
201.35,485.74
201.81,495.56
202.26,504.25
202.71,511.87
203.17,518.47
203.62,524.13
204.07,528.92
204.53,532.93
204.98,536.23
205.43,538.94
205.89,541.12
206.34,542.85
206.79,544.20
207.25,545.23
207.70,545.96
208.15,546.41
208.60,546.58
209.06,546.46
209.51,546.04
209.96,545.31
210.41,544.24
210.87,542.84
211.32,541.12
211.77,539.11
212.23,536.87
212.68,534.46
213.13,531.98
213.58,529.55
214.04,527.27
214.49,525.27
214.94,523.64
215.39,522.46
215.84,521.77
216.30,521.59
216.75,521.88
217.20,522.59
217.65,523.63
218.11,524.90
218.56,526.30
219.01,527.76
219.46,529.20
219.91,530.57
220.37,531.87
220.82,533.08
221.27,534.21
221.72,535.30
222.17,536.37
222.63,537.42
223.08,538.49
223.53,539.56
223.98,540.62
224.43,541.64
224.88,542.58
225.34,543.39
225.79,544.01
226.24,544.39
226.69,544.49
227.14,544.28
227.59,543.76
228.04,542.95
228.50,541.88
228.95,540.64
229.40,539.28
229.85,537.90
230.30,536.58
230.75,535.38
231.20,534.33
231.66,533.46
232.11,532.74
232.56,532.13
233.01,531.57
233.46,530.98
233.91,530.32
234.36,529.51
234.81,528.55
235.26,527.45
235.71,526.24
236.17,525.01
236.62,523.85
237.07,522.86
237.52,522.13
237.97,521.71
238.42,521.65
238.87,521.92
239.32,522.49
239.77,523.28
240.22,524.20
240.67,525.17
241.12,526.10
241.57,526.97
242.02,527.74
242.47,528.42
242.92,529.06
243.37,529.67
243.82,530.32
244.27,531.01
244.72,531.77
245.18,532.57
245.63,533.41
246.08,534.23
246.53,535.00
246.98,535.68
247.43,536.25
247.88,536.70
248.33,537.05
248.78,537.30
249.23,537.49
249.68,537.64
250.12,537.78
250.57,537.91
251.02,538.04
251.47,538.16
251.92,538.25
252.37,538.28
252.82,538.22
253.27,538.05
253.72,537.75
254.17,537.31
254.62,536.76
255.07,536.12
255.52,535.43
255.97,534.77
256.42,534.17
256.87,533.71
257.32,533.42
257.77,533.33
258.22,533.46
258.66,533.77
259.11,534.27
259.56,534.90
260.01,535.64
260.46,536.45
260.91,537.30
261.36,538.16
261.81,539.01
262.26,539.84
262.71,540.61
263.15,541.33
263.60,541.96
264.05,542.49
264.50,542.92
264.95,543.25
265.40,543.46
265.85,543.56
266.30,543.55
266.74,543.42
267.19,543.15
267.64,542.73
268.09,542.12
268.54,541.31
268.99,540.30
269.43,539.08
269.88,537.71
270.33,536.23
270.78,534.75
271.23,533.35
271.68,532.14
272.12,531.24
272.57,530.71
273.02,530.63
273.47,531.01
273.92,531.82
274.36,533.02
274.81,534.48
275.26,536.10
275.71,537.73
276.16,539.23
276.60,540.48
277.05,541.39
277.50,541.91
277.95,542.06
278.39,541.88
278.84,541.49
279.29,541.01
279.74,540.57
280.19,540.29
280.63,540.25
281.08,540.50
281.53,541.00
281.98,541.68
282.42,542.45
282.87,543.17
283.32,543.73
283.76,544.03
284.21,544.04
284.66,543.76
285.11,543.25
285.55,542.62
286.00,541.99
286.45,541.49
286.89,541.21
287.34,541.24
287.79,541.61
288.23,542.31
288.68,543.30
289.13,544.51
289.58,545.87
290.02,547.29
290.47,548.70
290.92,550.03
291.36,551.24
291.81,552.30
292.26,553.18
292.70,553.85
293.15,554.32
293.60,554.58
294.04,554.62
294.49,554.45
294.93,554.09
295.38,553.53
295.83,552.81
296.27,551.93
296.72,550.92
297.17,549.79
297.61,548.56
298.06,547.25
298.50,545.90
298.95,544.53
299.40,543.21
299.84,541.98
300.29,540.94
300.73,540.15
301.18,539.69
301.63,539.62
302.07,540.00
302.52,540.83
302.96,542.08
303.41,543.71
303.85,545.64
304.30,547.77
304.75,549.99
305.19,552.21
305.64,554.32
306.08,556.25
306.53,557.95
306.97,559.36
307.42,560.46
307.86,561.24
308.31,561.68
308.75,561.80
309.20,561.63
309.65,561.19
310.09,560.56
310.54,559.80
310.98,558.99
311.43,558.23
311.87,557.58
312.32,557.11
312.76,556.86
313.21,556.85
313.65,557.06
314.10,557.45
314.54,557.99
314.99,558.59
315.43,559.21
315.87,559.77
316.32,560.23
316.76,560.57
317.21,560.76
317.65,560.80
318.10,560.71
318.54,560.50
318.99,560.20
319.43,559.81
319.88,559.35
320.32,558.79
320.76,558.14
321.21,557.37
321.65,556.46
322.10,555.40
322.54,554.19
322.99,552.86
323.43,551.44
323.87,549.99
324.32,548.56
324.76,547.21
325.21,546.01
325.65,545.02
326.09,544.27
326.54,543.81
326.98,543.65
327.42,543.81
327.87,544.27
328.31,545.00
328.76,545.97
329.20,547.10
329.64,548.32
330.09,549.54
330.53,550.66
330.97,551.60
331.42,552.27
331.86,552.63
332.30,552.66
332.75,552.38
333.19,551.85
333.63,551.16
334.08,550.41
334.52,549.72
334.96,549.21
335.41,548.98
335.85,549.08
336.29,549.55
336.74,550.38
337.18,551.53
337.62,552.92
338.06,554.48
338.51,556.11
338.95,557.72
339.39,559.23
339.84,560.58
340.28,561.71
340.72,562.58
341.16,563.18
341.61,563.49
342.05,563.51
342.49,563.26
342.93,562.75
343.38,562.03
343.82,561.13
344.26,560.11
344.70,559.03
345.15,557.92
345.59,556.84
346.03,555.81
346.47,554.85
346.92,553.98
347.36,553.20
347.80,552.53
348.24,551.96
348.68,551.54
349.13,551.26
349.57,551.16
350.01,551.25
350.45,551.52
350.89,551.96
351.34,552.52
351.78,553.16
352.22,553.79
352.66,554.36
353.10,554.80
353.54,555.04
353.99,555.06
354.43,554.84
354.87,554.41
355.31,553.80
355.75,553.07
356.19,552.32
356.63,551.61
357.08,551.04
357.52,550.67
357.96,550.57
358.40,550.78
358.84,551.31
359.28,552.16
359.72,553.30
360.16,554.71
360.60,556.36
361.05,558.20
361.49,560.23
361.93,562.43
362.37,564.77
362.81,567.24
363.25,569.82
363.69,572.45
364.13,575.05
364.57,577.54
365.01,579.79
365.45,581.69
365.89,583.10
366.33,583.93
366.78,584.09
367.22,583.56
367.66,582.36
368.10,580.56
368.54,578.29
368.98,575.73
369.42,573.08
369.86,570.55
370.30,568.33
370.74,566.58
371.18,565.42
371.62,564.89
372.06,564.99
372.50,565.65
372.94,566.75
373.38,568.16
373.82,569.77
374.26,571.44
374.70,573.09
375.14,574.66
375.58,576.14
376.02,577.51
376.46,578.79
376.90,579.97
377.34,581.07
377.78,582.05
378.21,582.88
378.65,583.51
379.09,583.92
379.53,584.06
379.97,583.94
380.41,583.60
380.85,583.11
381.29,582.58
381.73,582.15
382.17,581.98
382.61,582.19
383.05,582.92
383.49,584.22
383.93,586.11
384.36,588.53
384.80,591.40
385.24,594.54
385.68,597.78
386.12,600.95
386.56,603.85
387.00,606.36
387.44,608.38
387.87,609.84
388.31,610.76
388.75,611.15
389.19,611.09
389.63,610.67
390.07,609.97
390.51,609.10
390.94,608.15
391.38,607.22
391.82,606.39
392.26,605.76
392.70,605.41
393.14,605.42
393.57,605.87
394.01,606.83
394.45,608.33
394.89,610.40
395.33,613.04
395.76,616.18
396.20,619.74
396.64,623.61
397.08,627.62
397.52,631.63
397.95,635.49
398.39,639.07
398.83,642.27
399.27,645.07
399.70,647.46
400.14,649.51
400.58,651.30
401.02,652.95
401.45,654.58
401.89,656.29
402.33,658.18
402.77,660.31
403.20,662.70
403.64,665.37
404.08,668.30
404.52,671.50
404.95,674.94
405.39,678.63
405.83,682.57
406.26,686.78
406.70,691.27
407.14,696.04
407.58,701.07
408.01,706.35
408.45,711.79
408.89,717.32
409.32,722.83
409.76,728.22
410.20,733.36
410.63,738.17
411.07,742.59
411.51,746.60
411.94,750.20
412.38,753.45
412.82,756.42
413.25,759.22
413.69,761.95
414.12,764.72
414.56,767.62
415.00,770.75
415.43,774.18
415.87,777.97
416.31,782.17
416.74,786.81
417.18,791.93
417.61,797.51
418.05,803.57
418.49,810.06
418.92,816.93
419.36,824.11
419.79,831.51
420.23,839.05
420.67,846.63
421.10,854.16
421.54,861.57
421.97,868.80
422.41,875.80
422.84,882.55
423.28,889.01
423.71,895.19
424.15,901.08
424.59,906.69
425.02,912.04
425.46,917.16
425.89,922.07
426.33,926.84
426.76,931.51
427.20,936.14
427.63,940.76
428.07,945.44
428.50,950.19
428.94,955.06
429.37,960.07
429.81,965.25
430.24,970.63
430.68,976.25
431.11,982.13
431.55,988.31
431.98,994.81
432.42,1001.62
432.85,1008.73
433.28,1016.11
433.72,1023.69
434.15,1031.44
434.59,1039.27
435.02,1047.14
435.46,1054.99
435.89,1062.80
436.33,1070.55
436.76,1078.21
437.19,1085.81
437.63,1093.36
438.06,1100.86
438.50,1108.33
438.93,1115.78
439.37,1123.21
439.80,1130.57
440.23,1137.82
440.67,1144.90
441.10,1151.70
441.53,1158.14
441.97,1164.14
442.40,1169.63
442.84,1174.60
443.27,1179.07
443.70,1183.12
444.14,1186.89
444.57,1190.52
445.00,1194.20
445.44,1198.10
445.87,1202.37
446.30,1207.14
446.74,1212.47
447.17,1218.39
447.60,1224.88
448.04,1231.91
448.47,1239.41
448.90,1247.29
449.34,1255.48
449.77,1263.89
450.20,1272.45
450.64,1281.08
451.07,1289.72
451.50,1298.33
451.93,1306.85
452.37,1315.29
452.80,1323.65
453.23,1331.99
453.67,1340.40
454.10,1348.99
454.53,1357.89
454.96,1367.23
455.40,1377.12
455.83,1387.65
456.26,1398.85
456.69,1410.69
457.13,1423.12
457.56,1436.02
457.99,1449.27
458.42,1462.74
458.86,1476.31
459.29,1489.88
459.72,1503.39
460.15,1516.79
460.58,1530.03
461.02,1543.06
461.45,1555.85
461.88,1568.31
462.31,1580.37
462.74,1591.97
463.18,1603.08
463.61,1613.71
464.04,1623.92
464.47,1633.86
464.90,1643.74
465.33,1653.81
465.77,1664.35
466.20,1675.65
466.63,1687.97
467.06,1701.49
467.49,1716.31
467.92,1732.47
468.35,1749.86
468.78,1768.34
469.22,1787.67
469.65,1807.59
470.08,1827.83
470.51,1848.17
470.94,1868.45
471.37,1888.58
471.80,1908.54
472.23,1928.43
472.66,1948.35
473.10,1968.46
473.53,1988.93
473.96,2009.90
474.39,2031.49
474.82,2053.80
475.25,2076.92
475.68,2100.90
476.11,2125.82
476.54,2151.75
476.97,2178.74
477.40,2206.86
477.83,2236.18
478.26,2266.74
478.69,2298.55
479.12,2331.60
479.55,2365.82
479.98,2401.12
480.41,2437.33
480.84,2474.23
481.27,2511.58
481.70,2549.09
482.13,2586.44
482.56,2623.36
482.99,2659.61
483.42,2695.00
483.85,2729.44
484.28,2762.87
484.71,2795.30
485.14,2826.77
485.57,2857.30
486.00,2886.93
486.43,2915.63
486.86,2943.42
487.29,2970.30
487.72,2996.32
488.15,3021.59
488.58,3046.26
489.01,3070.53
489.44,3094.64
489.87,3118.75
490.30,3143.01
490.72,3167.47
491.15,3192.12
491.58,3216.89
492.01,3241.69
492.44,3266.49
492.87,3291.27
493.30,3316.11
493.73,3341.15
494.16,3366.56
494.59,3392.50
495.01,3419.11
495.44,3446.43
495.87,3474.45
496.30,3503.05
496.73,3532.07
497.16,3561.33
497.59,3590.62
498.01,3619.70
498.44,3648.33
498.87,3676.24
499.30,3703.09
499.73,3728.53
500.16,3752.16
500.58,3773.62
501.01,3792.62
501.44,3809.02
501.87,3822.87
502.30,3834.47
502.72,3844.27
503.15,3852.93
503.58,3861.15
504.01,3869.61
504.44,3878.88
504.86,3889.37
505.29,3901.28
505.72,3914.60
506.15,3929.21
506.57,3944.87
507.00,3961.32
507.43,3978.36
507.86,3995.79
508.28,4013.50
508.71,4031.40
509.14,4049.40
509.57,4067.43
509.99,4085.39
510.42,4103.21
510.85,4120.88
511.27,4138.44
511.70,4156.09
512.13,4174.11
512.56,4192.87
512.98,4212.73
513.41,4233.98
513.84,4256.71
514.26,4280.81
514.69,4305.87
515.12,4331.29
515.54,4356.29
515.97,4380.10
516.40,4402.04
516.82,4421.67
517.25,4438.84
517.68,4453.72
518.10,4466.74
518.53,4478.48
518.95,4489.55
519.38,4500.42
519.81,4511.39
520.23,4522.46
520.66,4533.44
521.09,4543.95
521.51,4553.62
521.94,4562.13
522.36,4569.38
522.79,4575.50
523.22,4580.84
523.64,4585.92
524.07,4591.28
524.49,4597.39
524.92,4604.49
525.34,4612.56
525.77,4621.28
526.20,4630.12
526.62,4638.45
527.05,4645.67
527.47,4651.39
527.90,4655.48
528.32,4658.17
528.75,4659.99
529.17,4661.70
529.60,4664.11
530.02,4667.97
530.45,4673.81
530.87,4681.86
531.30,4692.00
531.72,4703.82
532.15,4716.75
532.57,4730.19
533.00,4743.65
533.42,4756.90
533.85,4769.97
534.27,4783.19
534.70,4797.06
535.12,4812.14
535.55,4828.89
535.97,4847.47
536.40,4867.72
536.82,4889.10
537.25,4910.75
537.67,4931.61
538.09,4950.65
538.52,4967.02
538.94,4980.21
539.37,4990.17
539.79,4997.30
540.22,5002.41
540.64,5006.51
541.06,5010.66
541.49,5015.71
541.91,5022.16
542.34,5030.04
542.76,5038.87
543.18,5047.75
543.61,5055.56
544.03,5061.13
544.46,5063.51
544.88,5062.17
545.30,5057.11
545.73,5048.93
546.15,5038.73
546.57,5027.96
547.00,5018.18
547.42,5010.79
547.84,5006.82
548.27,5006.77
548.69,5010.52
549.11,5017.42
549.54,5026.43
549.96,5036.33
550.38,5045.99
550.81,5054.58
551.23,5061.75
551.65,5067.67
552.07,5073.00
552.50,5078.72
552.92,5085.93
553.34,5095.57
553.77,5108.25
554.19,5124.05
554.61,5142.47
555.03,5162.53
555.46,5182.86
555.88,5202.00
556.30,5218.62
556.72,5231.79
557.15,5241.13
557.57,5246.98
557.99,5250.29
558.41,5252.53
558.84,5255.47
559.26,5260.87
559.68,5270.23
560.10,5284.49
560.52,5303.92
560.95,5328.01
561.37,5355.52
561.79,5384.69
562.21,5413.47
562.63,5439.82
563.06,5462.02
563.48,5478.94
563.90,5490.22
564.32,5496.34
564.74,5498.53
565.16,5498.63
565.58,5498.80
566.01,5501.20
566.43,5507.64
566.85,5519.34
567.27,5536.70
567.69,5559.22
568.11,5585.56
568.53,5613.71
568.96,5641.25
569.38,5665.73
569.80,5684.91
570.22,5697.17
570.64,5701.65
571.06,5698.39
571.48,5688.27
571.90,5672.94
572.32,5654.47
572.74,5635.16
573.16,5617.13
573.58,5602.08
574.01,5591.04
574.43,5584.27
574.85,5581.26
575.27,5580.83
575.69,5581.34
576.11,5581.01
576.53,5578.17
576.95,5571.61
577.37,5560.73
577.79,5545.71
578.21,5527.51
578.63,5507.72
579.05,5488.37
579.47,5471.63
579.89,5459.50
580.31,5453.49
580.73,5454.41
581.15,5462.23
581.57,5476.11
581.99,5494.42
582.41,5515.06
582.83,5535.69
583.25,5554.08
583.67,5568.42
584.09,5577.59
584.51,5581.31
584.93,5580.20
585.34,5575.72
585.76,5569.98
586.18,5565.46
586.60,5564.69
587.02,5569.92
587.44,5582.82
587.86,5604.27
588.28,5634.21
588.70,5671.71
589.12,5715.01
589.54,5761.83
589.95,5809.57
590.37,5855.69
590.79,5898.00
591.21,5934.92
591.63,5965.69
592.05,5990.42
592.47,6010.09
592.89,6026.40
593.30,6041.62
593.72,6058.21
594.14,6078.61
594.56,6104.87
594.98,6138.42
595.40,6179.83
595.81,6228.77
596.23,6283.94
596.65,6343.27
597.07,6404.04
597.49,6463.20
597.90,6517.70
598.32,6564.77
598.74,6602.24
599.16,6628.77
599.58,6643.94
599.99,6648.35
600.41,6643.47
600.83,6631.53
601.25,6615.22
601.66,6597.45
602.08,6580.96
602.50,6568.09
602.92,6560.48
603.33,6558.94
603.75,6563.34
604.17,6572.68
604.59,6585.22
605.00,6598.67
605.42,6610.52
605.84,6618.30
606.25,6619.93
606.67,6613.94
607.09,6599.67
607.51,6577.37
607.92,6548.18
608.34,6514.02
608.76,6477.37
609.17,6441.04
609.59,6407.80
610.01,6380.14
610.42,6359.96
610.84,6348.40
611.26,6345.68
611.67,6351.15
612.09,6363.32
612.51,6380.07
612.92,6398.84
613.34,6417.00
613.75,6432.02
614.17,6441.85
614.59,6445.05
615.00,6441.00
615.42,6429.94
615.83,6412.92
616.25,6391.76
616.67,6368.79
617.08,6346.65
617.50,6328.02
617.91,6315.31
618.33,6310.45
618.75,6314.69
619.16,6328.44
619.58,6351.26
619.99,6381.88
620.41,6418.37
620.82,6458.28
621.24,6498.91
621.65,6537.55
622.07,6571.78
622.48,6599.65
622.90,6619.86
623.31,6631.91
623.73,6636.07
624.14,6633.37
624.56,6625.47
624.97,6614.50
625.39,6602.83
625.80,6592.88
626.22,6586.82
626.63,6586.48
627.05,6593.08
627.46,6607.23
627.88,6628.82
628.29,6657.10
628.71,6690.71
629.12,6727.88
629.54,6766.53
629.95,6804.48
630.37,6839.65
630.78,6870.19
631.19,6894.67
631.61,6912.14
632.02,6922.22
632.44,6925.14
632.85,6921.67
633.26,6913.07
633.68,6900.99
634.09,6887.33
634.51,6874.08
634.92,6863.15
635.33,6856.24
635.75,6854.67
636.16,6859.26
636.57,6870.30
636.99,6887.51
637.40,6910.03
637.82,6936.57
638.23,6965.45
638.64,6994.80
639.06,7022.72
639.47,7047.42
639.88,7067.38
640.30,7081.49
640.71,7089.17
641.12,7090.34
641.53,7085.52
641.95,7075.72
642.36,7062.41
642.77,7047.37
643.19,7032.57
643.60,7020.03
644.01,7011.62
644.42,7008.91
644.84,7013.09
645.25,7024.79
645.66,7044.09
646.08,7070.46
646.49,7102.82
646.90,7139.63
647.31,7178.98
647.73,7218.81
648.14,7257.02
648.55,7291.67
648.96,7321.16
649.37,7344.32
649.79,7360.55
650.20,7369.84
650.61,7372.77
651.02,7370.47
651.43,7364.45
651.85,7356.57
652.26,7348.80
652.67,7343.07
653.08,7341.14
653.49,7344.47
653.90,7354.07
654.32,7370.46
654.73,7393.67
655.14,7423.17
655.55,7457.96
655.96,7496.67
656.37,7537.62
656.78,7578.95
657.20,7618.80
657.61,7655.43
658.02,7687.37
658.43,7713.51
658.84,7733.23
659.25,7746.40
659.66,7753.39
660.07,7755.06
660.48,7752.65
660.90,7747.68
661.31,7741.82
661.72,7736.77
662.13,7734.13
662.54,7735.32
662.95,7741.44
663.36,7753.26
663.77,7771.14
664.18,7795.06
664.59,7824.57
665.00,7858.86
665.41,7896.82
665.82,7937.07
666.23,7978.07
666.64,8018.20
667.05,8055.90
667.46,8089.74
667.87,8118.54
668.28,8141.46
668.69,8158.04
669.10,8168.27
669.51,8172.58
669.92,8171.85
670.33,8167.31
670.74,8160.50
671.15,8153.16
671.56,8147.07
671.97,8143.98
672.38,8145.42
672.79,8152.60
673.20,8166.34
673.61,8186.96
674.02,8214.27
674.42,8247.58
674.83,8285.77
675.24,8327.35
675.65,8370.58
676.06,8413.64
676.47,8454.70
676.88,8492.05
677.29,8524.23
677.70,8550.03
678.11,8568.60
678.51,8579.45
678.92,8582.47
679.33,8577.89
679.74,8566.34
680.15,8548.75
680.56,8526.41
680.97,8500.85
681.37,8473.80
681.78,8447.12
682.19,8422.67
682.60,8402.19
683.01,8387.22
683.42,8378.92
683.82,8378.05
684.23,8384.89
684.64,8399.21
685.05,8420.29
685.45,8446.99
685.86,8477.84
686.27,8511.17
686.68,8545.18
687.09,8578.14
687.49,8608.42
687.90,8634.68
688.31,8655.85
688.72,8671.24
689.12,8680.50
689.53,8683.64
689.94,8680.99
690.35,8673.18
690.75,8661.03
691.16,8645.57
691.57,8627.96
691.97,8609.42
692.38,8591.23
692.79,8574.64
693.20,8560.85
693.60,8550.94
694.01,8545.81
694.42,8546.14
694.82,8552.31
695.23,8564.44
695.64,8582.28
696.04,8605.29
696.45,8632.61
696.86,8663.18
697.26,8695.71
697.67,8728.85
698.07,8761.20
698.48,8791.41
698.89,8818.29
699.29,8840.80
699.70,8858.20
700.11,8869.98
700.51,8875.99
700.92,8876.38
701.32,8871.64
701.73,8862.53
702.14,8850.09
702.54,8835.54
702.95,8820.26
703.35,8805.64
703.76,8793.05
704.16,8783.72
704.57,8778.71
704.97,8778.78
705.38,8784.44
705.79,8795.86
706.19,8812.90
706.60,8835.16
707.00,8861.97
707.41,8892.47
707.81,8925.65
708.22,8960.41
708.62,8995.61
709.03,9030.08
709.43,9062.69
709.84,9092.38
710.24,9118.17
710.65,9139.19
711.05,9154.74
711.46,9164.28
711.86,9167.55
712.27,9164.54
712.67,9155.58
713.07,9141.33
713.48,9122.77
713.88,9101.21
714.29,9078.19
714.69,9055.39
715.10,9034.54
715.50,9017.27
715.90,9005.02
716.31,8998.92
716.71,8999.70
717.12,9007.70
717.52,9022.80
717.92,9044.50
718.33,9071.94
718.73,9104.00
719.14,9139.35
719.54,9176.57
719.94,9214.20
720.35,9250.84
720.75,9285.16
721.15,9315.99
721.56,9342.34
721.96,9363.44
722.36,9378.72
722.77,9387.88
723.17,9390.87
723.57,9387.89
723.98,9379.39
724.38,9366.06
724.78,9348.82
725.19,9328.74
725.59,9307.03
725.99,9285.01
726.39,9264.01
726.80,9245.35
727.20,9230.25
727.60,9219.83
728.00,9215.00
728.41,9216.43
728.81,9224.53
729.21,9239.41
729.61,9260.83
730.02,9288.24
730.42,9320.79
730.82,9357.32
731.22,9396.45
731.63,9436.64
732.03,9476.24
732.43,9513.59
732.83,9547.09
733.23,9575.28
733.64,9596.88
734.04,9610.91
734.44,9616.65
734.84,9613.72
735.24,9602.10
735.64,9582.11
736.05,9554.38
736.45,9519.91
736.85,9479.95
737.25,9436.02
737.65,9389.82
738.05,9343.17
738.45,9297.91
738.86,9255.83
739.26,9218.53
739.66,9187.36
