wavelength,counts
188.65,246.26
189.10,246.26
189.56,246.26
190.01,246.26
190.47,246.26
190.92,276.36
191.37,289.04
191.83,303.50
192.28,319.52
192.74,336.78
193.19,354.89
193.64,373.40
194.10,392.59
194.55,412.25
195.01,432.20
195.46,452.23
195.91,472.20
196.37,491.95
196.82,511.32
197.27,530.20
197.73,548.46
198.18,565.98
198.63,582.67
199.09,598.43
199.54,613.16
199.99,626.79
200.45,639.28
200.90,650.58
201.35,660.68
201.81,669.59
202.26,677.36
202.71,684.04
203.17,689.70
203.62,694.42
204.07,698.30
204.53,701.43
204.98,703.90
205.43,705.78
205.89,707.14
206.34,708.05
206.79,708.55
207.25,708.70
207.70,708.53
208.15,708.08
208.60,707.38
209.06,706.49
209.51,705.45
209.96,704.29
210.41,703.07
210.87,701.82
211.32,700.58
211.77,699.37
212.23,698.22
212.68,697.13
213.13,696.10
213.58,695.14
214.04,694.22
214.49,693.36
214.94,692.54
215.39,691.75
215.84,690.99
216.30,690.26
216.75,689.56
217.20,688.87
217.65,688.21
218.11,687.57
218.56,686.95
219.01,686.34
219.46,685.76
219.91,685.20
220.37,684.69
220.82,684.23
221.27,683.84
221.72,683.53
222.17,683.31
222.63,683.19
223.08,683.15
223.53,683.20
223.98,683.31
224.43,683.47
224.88,683.64
225.34,683.81
225.79,683.97
226.24,684.12
226.69,684.25
227.14,684.37
227.59,684.51
228.04,684.67
228.50,684.87
228.95,685.11
229.40,685.39
229.85,685.71
230.30,686.03
230.75,686.36
231.20,686.66
231.66,686.92
232.11,687.13
232.56,687.27
233.01,687.36
233.46,687.38
233.91,687.36
234.36,687.31
234.81,687.23
235.26,687.16
235.71,687.09
236.17,687.05
236.62,687.06
237.07,687.13
237.52,687.28
237.97,687.53
238.42,687.88
238.87,688.35
239.32,688.94
239.77,689.65
240.22,690.46
240.67,691.38
241.12,692.36
241.57,693.39
242.02,694.43
242.47,695.45
242.92,696.39
243.37,697.23
243.82,697.92
244.27,698.45
244.72,698.81
245.18,699.01
245.63,699.08
246.08,699.05
246.53,698.98
246.98,698.91
247.43,698.88
247.88,698.93
248.33,699.05
248.78,699.24
249.23,699.46
249.68,699.67
250.12,699.81
250.57,699.86
251.02,699.76
251.47,699.51
251.92,699.11
252.37,698.59
252.82,697.99
253.27,697.35
253.72,696.73
254.17,696.18
254.62,695.73
255.07,695.40
255.52,695.19
255.97,695.08
256.42,695.04
256.87,695.06
257.32,695.10
257.77,695.13
258.22,695.14
258.66,695.12
259.11,695.09
259.56,695.04
260.01,694.99
260.46,694.97
260.91,694.96
261.36,694.98
261.81,695.02
262.26,695.08
262.71,695.12
263.15,695.13
263.60,695.08
264.05,694.97
264.50,694.76
264.95,694.45
265.40,694.04
265.85,693.55
266.30,693.01
266.74,692.44
267.19,691.90
267.64,691.44
268.09,691.10
268.54,690.94
268.99,691.00
269.43,691.30
269.88,691.84
270.33,692.62
270.78,693.60
271.23,694.75
271.68,696.00
272.12,697.31
272.57,698.61
273.02,699.85
273.47,700.98
273.92,701.97
274.36,702.80
274.81,703.45
275.26,703.91
275.71,704.19
276.16,704.30
276.60,704.24
277.05,704.05
277.50,703.74
277.95,703.33
278.39,702.87
278.84,702.37
279.29,701.87
279.74,701.39
280.19,700.98
280.63,700.65
281.08,700.44
281.53,700.35
281.98,700.41
282.42,700.63
282.87,700.98
283.32,701.47
283.76,702.06
284.21,702.72
284.66,703.38
285.11,704.01
285.55,704.54
286.00,704.92
286.45,705.12
286.89,705.11
287.34,704.88
287.79,704.46
288.23,703.86
288.68,703.14
289.13,702.34
289.58,701.51
290.02,700.72
290.47,699.99
290.92,699.38
291.36,698.91
291.81,698.60
292.26,698.47
292.70,698.53
293.15,698.77
293.60,699.19
294.04,699.78
294.49,700.52
294.93,701.37
295.38,702.32
295.83,703.31
296.27,704.31
296.72,705.28
297.17,706.16
297.61,706.94
298.06,707.59
298.50,708.08
298.95,708.41
299.40,708.59
299.84,708.63
300.29,708.54
300.73,708.35
301.18,708.08
301.63,707.76
302.07,707.42
302.52,707.09
302.96,706.79
303.41,706.54
303.85,706.36
304.30,706.26
304.75,706.24
305.19,706.30
305.64,706.42
306.08,706.59
306.53,706.78
306.97,706.97
307.42,707.15
307.86,707.30
308.31,707.43
308.75,707.52
309.20,707.61
309.65,707.69
310.09,707.79
310.54,707.92
310.98,708.07
311.43,708.25
311.87,708.46
312.32,708.66
312.76,708.85
313.21,709.02
313.65,709.15
314.10,709.26
314.54,709.33
314.99,709.41
315.43,709.50
315.87,709.64
316.32,709.85
316.76,710.14
317.21,710.52
317.65,710.99
318.10,711.53
318.54,712.13
318.99,712.77
319.43,713.41
319.88,714.05
320.32,714.67
320.76,715.26
321.21,715.81
321.65,716.32
322.10,716.79
322.54,717.23
322.99,717.64
323.43,718.03
323.87,718.41
324.32,718.79
324.76,719.18
325.21,719.59
325.65,720.03
326.09,720.51
326.54,721.04
326.98,721.62
327.42,722.26
327.87,722.96
328.31,723.71
328.76,724.51
329.20,725.35
329.64,726.22
330.09,727.11
330.53,728.02
330.97,728.94
331.42,729.89
331.86,730.86
332.30,731.87
332.75,732.92
333.19,734.01
333.63,735.13
334.08,736.30
334.52,737.49
334.96,738.69
335.41,739.92
335.85,741.16
336.29,742.41
336.74,743.70
337.18,745.03
337.62,746.42
338.06,747.88
338.51,749.42
338.95,751.05
339.39,752.74
339.84,754.50
340.28,756.31
340.72,758.13
341.16,759.97
341.61,761.81
342.05,763.64
342.49,765.46
342.93,767.28
343.38,769.11
343.82,770.94
344.26,772.77
344.70,774.58
345.15,776.37
345.59,778.11
346.03,779.76
346.47,781.29
346.92,782.70
347.36,783.95
347.80,785.05
348.24,785.99
348.68,786.78
349.13,787.45
349.57,788.02
350.01,788.50
350.45,788.94
350.89,789.34
351.34,789.74
351.78,790.16
352.22,790.62
352.66,791.14
353.10,791.73
353.54,792.40
353.99,793.16
354.43,793.99
354.87,794.89
355.31,795.83
355.75,796.79
356.19,797.73
356.63,798.61
357.08,799.41
357.52,800.09
357.96,800.65
358.40,801.06
358.84,801.34
359.28,801.50
359.72,801.56
360.16,801.56
360.60,801.54
361.05,801.54
361.49,801.57
361.93,801.67
362.37,801.82
362.81,802.03
363.25,802.27
363.69,802.48
364.13,802.63
364.57,802.68
365.01,802.58
365.45,802.31
365.89,801.86
366.33,801.24
366.78,800.48
367.22,799.60
367.66,798.64
368.10,797.67
368.54,796.70
368.98,795.79
369.42,794.94
369.86,794.16
370.30,793.47
370.74,792.82
371.18,792.20
371.62,791.58
372.06,790.91
372.50,790.14
372.94,789.26
373.38,788.23
373.82,787.04
374.26,785.69
374.70,784.19
375.14,782.58
375.58,780.90
376.02,779.19
376.46,777.49
376.90,775.85
377.34,774.31
377.78,772.88
378.21,771.57
378.65,770.39
379.09,769.33
379.53,768.37
379.97,767.48
380.41,766.65
380.85,765.84
381.29,765.03
381.73,764.21
382.17,763.36
382.61,762.48
383.05,761.58
383.49,760.67
383.93,759.78
384.36,758.94
384.80,758.18
385.24,757.53
385.68,757.01
386.12,756.63
386.56,756.40
387.00,756.30
387.44,756.30
387.87,756.35
388.31,756.43
388.75,756.50
389.19,756.50
389.63,756.44
390.07,756.28
390.51,756.04
390.94,755.72
391.38,755.33
391.82,754.91
392.26,754.45
392.70,753.99
393.14,753.53
393.57,753.08
394.01,752.63
394.45,752.20
394.89,751.77
395.33,751.36
395.76,750.97
396.20,750.59
396.64,750.24
397.08,749.93
397.52,749.67
397.95,749.45
398.39,749.29
398.83,749.19
399.27,749.17
399.70,749.23
400.14,749.37
400.58,749.62
401.02,749.98
401.45,750.44
401.89,751.00
402.33,751.66
402.77,752.37
403.20,753.12
403.64,753.84
404.08,754.51
404.52,755.08
404.95,755.51
405.39,755.79
405.83,755.91
406.26,755.87
406.70,755.70
407.14,755.43
407.58,755.09
408.01,754.72
408.45,754.35
408.89,754.02
409.32,753.73
409.76,753.51
410.20,753.36
410.63,753.28
411.07,753.28
411.51,753.34
411.94,753.45
412.38,753.61
412.82,753.79
413.25,753.97
413.69,754.13
414.12,754.26
414.56,754.34
415.00,754.36
415.43,754.32
415.87,754.23
416.31,754.11
416.74,753.97
417.18,753.85
417.61,753.77
418.05,753.75
418.49,753.80
418.92,753.96
419.36,754.21
419.79,754.57
420.23,755.04
420.67,755.63
421.10,756.32
421.54,757.13
421.97,758.06
422.41,759.09
422.84,760.21
423.28,761.41
423.71,762.66
424.15,763.92
424.59,765.17
425.02,766.36
425.46,767.46
425.89,768.46
426.33,769.33
426.76,770.08
427.20,770.72
427.63,771.27
428.07,771.76
428.50,772.21
428.94,772.64
429.37,773.06
429.81,773.47
430.24,773.86
430.68,774.22
431.11,774.53
431.55,774.76
431.98,774.91
432.42,774.96
432.85,774.92
433.28,774.81
433.72,774.64
434.15,774.44
434.59,774.26
435.02,774.12
435.46,774.05
435.89,774.07
436.33,774.19
436.76,774.40
437.19,774.70
437.63,775.04
438.06,775.41
438.50,775.75
438.93,776.03
439.37,776.23
439.80,776.32
440.23,776.30
440.67,776.18
441.10,776.00
441.53,775.80
441.97,775.64
442.40,775.58
442.84,775.68
443.27,775.97
443.70,776.48
444.14,777.21
444.57,778.15
445.00,779.24
445.44,780.44
445.87,781.66
446.30,782.82
446.74,783.85
447.17,784.68
447.60,785.27
448.04,785.59
448.47,785.63
448.90,785.44
449.34,785.06
449.77,784.57
450.20,784.03
450.64,783.55
451.07,783.21
451.50,783.07
451.93,783.20
452.37,783.61
452.80,784.31
453.23,785.28
453.67,786.47
454.10,787.80
454.53,789.22
454.96,790.64
455.40,792.00
455.83,793.23
456.26,794.31
456.69,795.21
457.13,795.93
457.56,796.46
457.99,796.84
458.42,797.08
458.86,797.21
459.29,797.27
459.72,797.28
460.15,797.29
460.58,797.33
461.02,797.45
461.45,797.70
461.88,798.15
462.31,798.84
462.74,799.82
463.18,801.13
463.61,802.77
464.04,804.74
464.47,807.00
464.90,809.49
465.33,812.13
465.77,814.82
466.20,817.47
466.63,819.98
467.06,822.27
467.49,824.30
467.92,826.03
468.35,827.49
468.78,828.69
469.22,829.69
469.65,830.56
470.08,831.37
470.51,832.19
470.94,833.09
471.37,834.12
471.80,835.33
472.23,836.78
472.66,838.49
473.10,840.51
473.53,842.87
473.96,845.62
474.39,848.77
474.82,852.33
475.25,856.32
475.68,860.68
476.11,865.38
476.54,870.34
476.97,875.46
477.40,880.65
477.83,885.79
478.26,890.78
478.69,895.56
479.12,900.04
479.55,904.18
479.98,907.96
480.41,911.38
480.84,914.44
481.27,917.18
481.70,919.62
482.13,921.84
482.56,923.88
482.99,925.83
483.42,927.76
483.85,929.77
484.28,931.93
484.71,934.34
485.14,937.06
485.57,940.15
486.00,943.66
486.43,947.62
486.86,952.05
487.29,956.96
487.72,962.33
488.15,968.13
488.58,974.32
489.01,980.82
489.44,987.58
489.87,994.48
490.30,1001.43
490.72,1008.31
491.15,1015.01
491.58,1021.41
492.01,1027.41
492.44,1032.89
492.87,1037.76
493.30,1041.97
493.73,1045.46
494.16,1048.21
494.59,1050.24
495.01,1051.59
495.44,1052.36
495.87,1052.66
496.30,1052.64
496.73,1052.45
497.16,1052.26
497.59,1052.21
498.01,1052.44
498.44,1053.05
498.87,1054.12
499.30,1055.67
499.73,1057.73
500.16,1060.27
500.58,1063.26
501.01,1066.67
501.44,1070.44
501.87,1074.55
502.30,1078.95
502.72,1083.62
503.15,1088.53
503.58,1093.68
504.01,1099.05
504.44,1104.64
504.86,1110.42
505.29,1116.37
505.72,1122.42
506.15,1128.49
506.57,1134.50
507.00,1140.29
507.43,1145.74
507.86,1150.70
508.28,1155.04
508.71,1158.66
509.14,1161.51
509.57,1163.60
509.99,1164.97
510.42,1165.74
510.85,1166.04
511.27,1166.02
511.70,1165.84
512.13,1165.62
512.56,1165.45
512.98,1165.38
513.41,1165.44
513.84,1165.61
514.26,1165.86
514.69,1166.16
515.12,1166.49
515.54,1166.83
515.97,1167.20
516.40,1167.63
516.82,1168.17
517.25,1168.90
517.68,1169.87
518.10,1171.17
518.53,1172.87
518.95,1175.05
519.38,1177.77
519.81,1181.07
520.23,1185.00
520.66,1189.53
521.09,1194.65
521.51,1200.27
521.94,1206.30
522.36,1212.60
522.79,1219.04
523.22,1225.48
523.64,1231.80
524.07,1237.90
524.49,1243.71
524.92,1249.20
525.34,1254.37
525.77,1259.19
526.20,1263.68
526.62,1267.80
527.05,1271.50
527.47,1274.70
527.90,1277.31
528.32,1279.21
528.75,1280.31
529.17,1280.56
529.60,1279.92
530.02,1278.45
530.45,1276.24
530.87,1273.43
531.30,1270.21
531.72,1266.79
532.15,1263.36
532.57,1260.10
533.00,1257.14
533.42,1254.58
533.85,1252.46
534.27,1250.80
534.70,1249.57
535.12,1248.75
535.55,1248.31
535.97,1248.21
536.40,1248.43
536.82,1248.97
537.25,1249.79
537.67,1250.91
538.09,1252.28
538.52,1253.90
538.94,1255.73
539.37,1257.75
539.79,1259.96
540.22,1262.35
540.64,1264.98
541.06,1267.90
541.49,1271.19
541.91,1274.94
542.34,1279.22
542.76,1284.07
543.18,1289.51
543.61,1295.47
544.03,1301.85
544.46,1308.51
544.88,1315.25
545.30,1321.88
545.73,1328.22
546.15,1334.09
546.57,1339.40
547.00,1344.09
547.42,1348.17
547.84,1351.68
548.27,1354.72
548.69,1357.37
549.11,1359.71
549.54,1361.79
549.96,1363.61
550.38,1365.11
550.81,1366.22
551.23,1366.81
551.65,1366.77
552.07,1366.01
552.50,1364.46
552.92,1362.15
553.34,1359.14
553.77,1355.58
554.19,1351.63
554.61,1347.52
555.03,1343.46
555.46,1339.61
555.88,1336.12
556.30,1333.07
556.72,1330.47
557.15,1328.30
557.57,1326.49
557.99,1324.96
558.41,1323.64
558.84,1322.47
559.26,1321.45
559.68,1320.59
560.10,1319.96
560.52,1319.63
560.95,1319.68
561.37,1320.19
561.79,1321.20
562.21,1322.75
562.63,1324.83
563.06,1327.41
563.48,1330.45
563.90,1333.90
564.32,1337.74
564.74,1341.97
565.16,1346.59
565.58,1351.67
566.01,1357.27
566.43,1363.47
566.85,1370.35
567.27,1377.94
567.69,1386.24
568.11,1395.18
568.53,1404.65
568.96,1414.45
569.38,1424.35
569.80,1434.07
570.22,1443.36
570.64,1451.94
571.06,1459.59
571.48,1466.18
571.90,1471.63
572.32,1475.96
572.74,1479.24
573.16,1481.61
573.58,1483.26
574.01,1484.35
574.43,1485.03
574.85,1485.40
575.27,1485.50
575.69,1485.32
576.11,1484.75
576.53,1483.70
576.95,1482.04
577.37,1479.64
577.79,1476.44
578.21,1472.43
578.63,1467.67
579.05,1462.29
579.47,1456.48
579.89,1450.47
580.31,1444.50
580.73,1438.83
581.15,1433.64
581.57,1429.07
581.99,1425.21
582.41,1422.05
582.83,1419.51
583.25,1417.48
583.67,1415.79
584.09,1414.30
584.51,1412.85
584.93,1411.34
585.34,1409.71
585.76,1407.94
586.18,1406.10
586.60,1404.26
587.02,1402.55
587.44,1401.09
587.86,1400.02
588.28,1399.43
588.70,1399.37
589.12,1399.88
589.54,1400.91
589.95,1402.40
590.37,1404.25
590.79,1406.37
591.21,1408.65
591.63,1411.02
592.05,1413.46
592.47,1416.00
592.89,1418.71
593.30,1421.71
593.72,1425.17
594.14,1429.24
594.56,1434.07
594.98,1439.78
595.40,1446.40
595.81,1453.91
596.23,1462.20
596.65,1471.10
597.07,1480.38
597.49,1489.78
597.90,1499.04
598.32,1507.93
598.74,1516.25
599.16,1523.89
599.58,1530.79
599.99,1536.98
600.41,1542.54
600.83,1547.62
601.25,1552.37
601.66,1556.94
602.08,1561.48
602.50,1566.08
602.92,1570.76
603.33,1575.48
603.75,1580.14
604.17,1584.56
604.59,1588.53
605.00,1591.81
605.42,1594.18
605.84,1595.41
606.25,1595.37
606.67,1593.98
607.09,1591.24
607.51,1587.24
607.92,1582.15
608.34,1576.19
608.76,1569.63
609.17,1562.76
609.59,1555.85
610.01,1549.15
610.42,1542.86
610.84,1537.10
611.26,1531.94
611.67,1527.36
612.09,1523.29
612.51,1519.62
612.92,1516.18
613.34,1512.81
613.75,1509.35
614.17,1505.68
614.59,1501.69
615.00,1497.34
615.42,1492.65
615.83,1487.68
616.25,1482.54
616.67,1477.38
617.08,1472.37
617.50,1467.68
617.91,1463.45
618.33,1459.83
618.75,1456.88
619.16,1454.63
619.58,1453.06
619.99,1452.07
620.41,1451.56
620.82,1451.36
621.24,1451.30
621.65,1451.23
622.07,1451.00
622.48,1450.52
622.90,1449.74
623.31,1448.66
623.73,1447.34
624.14,1445.90
624.56,1444.46
624.97,1443.18
625.39,1442.21
625.80,1441.67
626.22,1441.68
626.63,1442.27
627.05,1443.46
627.46,1445.19
627.88,1447.37
628.29,1449.88
628.71,1452.55
629.12,1455.24
629.54,1457.77
629.95,1460.02
630.37,1461.88
630.78,1463.31
631.19,1464.30
631.61,1464.91
632.02,1465.26
632.44,1465.49
632.85,1465.79
633.26,1466.35
633.68,1467.37
634.09,1469.00
634.51,1471.37
634.92,1474.52
635.33,1478.46
635.75,1483.09
636.16,1488.27
636.57,1493.81
636.99,1499.47
637.40,1505.02
637.82,1510.21
638.23,1514.83
638.64,1518.73
639.06,1521.78
639.47,1523.96
639.88,1525.28
640.30,1525.82
640.71,1525.69
641.12,1525.07
641.53,1524.12
641.95,1523.03
642.36,1521.96
642.77,1521.05
643.19,1520.41
643.60,1520.13
644.01,1520.22
644.42,1520.68
644.84,1521.44
645.25,1522.42
645.66,1523.48
646.08,1524.49
646.49,1525.27
646.90,1525.68
647.31,1525.57
647.73,1524.83
648.14,1523.37
648.55,1521.17
648.96,1518.24
649.37,1514.67
649.79,1510.58
650.20,1506.16
650.61,1501.60
651.02,1497.13
651.43,1492.96
651.85,1489.27
652.26,1486.23
652.67,1483.92
653.08,1482.37
653.49,1481.56
653.90,1481.38
654.32,1481.70
654.73,1482.34
655.14,1483.11
655.55,1483.80
655.96,1484.25
656.37,1484.30
656.78,1483.85
657.20,1482.84
657.61,1481.24
658.02,1479.10
658.43,1476.47
658.84,1473.47
659.25,1470.22
659.66,1466.87
660.07,1463.57
660.48,1460.50
660.90,1457.78
661.31,1455.55
661.72,1453.92
662.13,1452.95
662.54,1452.68
662.95,1453.10
663.36,1454.16
663.77,1455.77
664.18,1457.80
664.59,1460.12
665.00,1462.56
665.41,1464.96
665.82,1467.18
666.23,1469.08
666.64,1470.59
667.05,1471.67
667.46,1472.33
667.87,1472.62
668.28,1472.65
668.69,1472.56
669.10,1472.53
669.51,1472.71
669.92,1473.27
670.33,1474.35
670.74,1476.05
671.15,1478.42
671.56,1481.46
671.97,1485.12
672.38,1489.30
672.79,1493.86
673.20,1498.63
673.61,1503.42
674.02,1508.04
674.42,1512.31
674.83,1516.08
675.24,1519.22
675.65,1521.64
676.06,1523.32
676.47,1524.28
676.88,1524.59
677.29,1524.38
677.70,1523.82
678.11,1523.11
678.51,1522.48
678.92,1522.15
679.33,1522.34
679.74,1523.25
680.15,1525.02
680.56,1527.77
680.97,1531.55
681.37,1536.36
681.78,1542.14
682.19,1548.75
682.60,1556.02
683.01,1563.74
683.42,1571.64
683.82,1579.47
684.23,1586.94
684.64,1593.79
685.05,1599.82
685.45,1604.84
685.86,1608.75
686.27,1611.49
686.68,1613.09
687.09,1613.61
687.49,1613.21
687.90,1612.03
688.31,1610.29
688.72,1608.21
689.12,1605.99
689.53,1603.84
689.94,1601.96
690.35,1600.51
690.75,1599.61
691.16,1599.34
691.57,1599.73
691.97,1600.76
692.38,1602.36
692.79,1604.40
693.20,1606.71
693.60,1609.11
694.01,1611.38
694.42,1613.34
694.82,1614.78
695.23,1615.55
695.64,1615.53
696.04,1614.64
696.45,1612.84
696.86,1610.15
697.26,1606.61
697.67,1602.30
698.07,1597.33
698.48,1591.83
698.89,1585.96
699.29,1579.89
699.70,1573.78
700.11,1567.82
700.51,1562.17
700.92,1556.99
701.32,1552.42
701.73,1548.55
702.14,1545.47
702.54,1543.21
702.95,1541.78
703.35,1541.14
703.76,1541.23
704.16,1541.93
704.57,1543.12
704.97,1544.65
705.38,1546.35
705.79,1548.05
706.19,1549.59
706.60,1550.79
707.00,1551.52
707.41,1551.66
707.81,1551.10
708.22,1549.82
708.62,1547.79
709.03,1545.05
709.43,1541.69
709.84,1537.83
710.24,1533.66
710.65,1529.38
711.05,1525.21
711.46,1521.39
711.86,1518.13
712.27,1515.62
712.67,1514.01
713.07,1513.37
713.48,1513.73
713.88,1515.03
714.29,1517.17
714.69,1519.98
715.10,1523.28
715.50,1526.87
715.90,1530.53
716.31,1534.10
716.71,1537.40
717.12,1540.30
717.52,1542.72
717.92,1544.59
718.33,1545.88
718.73,1546.59
719.14,1546.74
719.54,1546.41
719.94,1545.69
720.35,1544.70
720.75,1543.60
721.15,1542.57
721.56,1541.83
721.96,1541.57
722.36,1541.99
722.77,1543.29
723.17,1545.60
723.57,1549.02
723.98,1553.59
724.38,1559.28
724.78,1566.01
725.19,1573.63
725.59,1581.94
725.99,1590.69
726.39,1599.63
726.80,1608.48
727.20,1616.97
727.60,1624.85
728.00,1631.92
728.41,1638.02
728.81,1643.03
729.21,1646.91
729.61,1649.66
730.02,1651.35
730.42,1652.09
730.82,1652.06
731.22,1651.46
731.63,1650.52
732.03,1649.51
732.43,1648.71
732.83,1648.39
733.23,1648.84
733.64,1650.30
734.04,1653.00
734.44,1657.10
734.84,1662.72
735.24,1669.92
735.64,1678.69
736.05,1688.94
736.45,1700.52
736.85,1713.23
737.25,1726.80
737.65,1740.95
738.05,1755.35
738.45,1769.69
738.86,1783.64
739.26,1796.90
739.66,1809.21
740.06,1820.33
740.46,1830.07
740.86,1838.31
741.26,1844.95
741.66,1849.95
742.06,1853.33
742.46,1855.14
742.87,1855.49
