wavelength,counts
188.65,259.50
189.10,259.50
189.56,259.50
190.01,259.50
190.47,259.50
190.92,285.59
191.37,296.66
191.83,309.35
192.28,323.52
192.74,338.93
193.19,355.30
193.64,372.28
194.10,390.13
194.55,408.69
195.01,427.77
195.46,447.17
195.91,466.72
196.37,486.22
196.82,505.48
197.27,524.34
197.73,542.66
198.18,560.29
198.63,577.13
199.09,593.07
199.54,608.02
199.99,621.92
200.45,634.70
200.90,646.34
201.35,656.83
201.81,666.19
202.26,674.46
202.71,681.71
203.17,688.01
203.62,693.47
204.07,698.16
204.53,702.16
204.98,705.53
205.43,708.32
205.89,710.57
206.34,712.28
206.79,713.48
207.25,714.16
207.70,714.35
208.15,714.07
208.60,713.35
209.06,712.24
209.51,710.79
209.96,709.07
210.41,707.15
210.87,705.08
211.32,702.95
211.77,700.81
212.23,698.71
212.68,696.70
213.13,694.83
213.58,693.11
214.04,691.56
214.49,690.19
214.94,688.99
215.39,687.97
215.84,687.10
216.30,686.38
216.75,685.80
217.20,685.34
217.65,685.00
218.11,684.78
218.56,684.65
219.01,684.63
219.46,684.69
219.91,684.82
220.37,685.01
220.82,685.22
221.27,685.45
221.72,685.67
222.17,685.87
222.63,686.06
223.08,686.24
223.53,686.41
223.98,686.60
224.43,686.83
224.88,687.13
225.34,687.52
225.79,688.00
226.24,688.60
226.69,689.30
227.14,690.09
227.59,690.96
228.04,691.87
228.50,692.79
228.95,693.67
229.40,694.47
229.85,695.15
230.30,695.67
230.75,696.01
231.20,696.16
231.66,696.11
232.11,695.88
232.56,695.50
233.01,694.99
233.46,694.42
233.91,693.82
234.36,693.24
234.81,692.74
235.26,692.35
235.71,692.09
236.17,691.98
236.62,692.00
237.07,692.16
237.52,692.42
237.97,692.77
238.42,693.16
238.87,693.60
239.32,694.05
239.77,694.51
240.22,694.98
240.67,695.47
241.12,695.98
241.57,696.51
242.02,697.08
242.47,697.67
242.92,698.27
243.37,698.85
243.82,699.38
244.27,699.82
244.72,700.14
245.18,700.30
245.63,700.28
246.08,700.07
246.53,699.68
246.98,699.12
247.43,698.45
247.88,697.71
248.33,696.95
248.78,696.25
249.23,695.64
249.68,695.16
250.12,694.82
250.57,694.62
251.02,694.55
251.47,694.57
251.92,694.66
252.37,694.76
252.82,694.87
253.27,694.97
253.72,695.06
254.17,695.14
254.62,695.24
255.07,695.38
255.52,695.58
255.97,695.86
256.42,696.21
256.87,696.63
257.32,697.12
257.77,697.65
258.22,698.21
258.66,698.77
259.11,699.32
259.56,699.85
260.01,700.34
260.46,700.80
260.91,701.23
261.36,701.63
261.81,702.00
262.26,702.35
262.71,702.67
263.15,702.95
263.60,703.18
264.05,703.35
264.50,703.46
264.95,703.49
265.40,703.44
265.85,703.34
266.30,703.19
266.74,703.02
267.19,702.88
267.64,702.77
268.09,702.73
268.54,702.78
268.99,702.91
269.43,703.11
269.88,703.35
270.33,703.60
270.78,703.81
271.23,703.95
271.68,703.97
272.12,703.87
272.57,703.63
273.02,703.27
273.47,702.82
273.92,702.31
274.36,701.79
274.81,701.30
275.26,700.88
275.71,700.57
276.16,700.37
276.60,700.32
277.05,700.40
277.50,700.60
277.95,700.93
278.39,701.36
278.84,701.87
279.29,702.44
279.74,703.04
280.19,703.67
280.63,704.29
281.08,704.89
281.53,705.45
281.98,705.95
282.42,706.37
282.87,706.71
283.32,706.96
283.76,707.11
284.21,707.17
284.66,707.13
285.11,707.02
285.55,706.84
286.00,706.61
286.45,706.33
286.89,706.04
287.34,705.72
287.79,705.40
288.23,705.06
288.68,704.71
289.13,704.35
289.58,703.98
290.02,703.61
290.47,703.25
290.92,702.92
291.36,702.64
291.81,702.44
292.26,702.35
292.70,702.38
293.15,702.55
293.60,702.85
294.04,703.27
294.49,703.78
294.93,704.35
295.38,704.93
295.83,705.49
296.27,706.01
296.72,706.44
297.17,706.80
297.61,707.07
298.06,707.28
298.50,707.44
298.95,707.57
299.40,707.71
299.84,707.87
300.29,708.09
300.73,708.36
301.18,708.71
301.63,709.11
302.07,709.57
302.52,710.06
302.96,710.56
303.41,711.05
303.85,711.50
304.30,711.88
304.75,712.18
305.19,712.39
305.64,712.51
306.08,712.55
306.53,712.53
306.97,712.47
307.42,712.40
307.86,712.33
308.31,712.30
308.75,712.31
309.20,712.38
309.65,712.50
310.09,712.67
310.54,712.87
310.98,713.09
311.43,713.30
311.87,713.48
312.32,713.60
312.76,713.63
313.21,713.57
313.65,713.40
314.10,713.13
314.54,712.77
314.99,712.35
315.43,711.90
315.87,711.46
316.32,711.07
316.76,710.75
317.21,710.54
317.65,710.46
318.10,710.51
318.54,710.69
318.99,710.96
319.43,711.33
319.88,711.74
320.32,712.16
320.76,712.58
321.21,712.96
321.65,713.29
322.10,713.57
322.54,713.82
322.99,714.05
323.43,714.31
323.87,714.62
324.32,715.02
324.76,715.54
325.21,716.22
325.65,717.04
326.09,718.01
326.54,719.11
326.98,720.31
327.42,721.58
327.87,722.91
328.31,724.25
328.76,725.61
329.20,726.98
329.64,728.35
330.09,729.75
330.53,731.19
330.97,732.68
331.42,734.23
331.86,735.84
332.30,737.52
332.75,739.25
333.19,741.02
333.63,742.80
334.08,744.58
334.52,746.32
334.96,748.01
335.41,749.60
335.85,751.10
336.29,752.47
336.74,753.73
337.18,754.87
337.62,755.92
338.06,756.89
338.51,757.82
338.95,758.74
339.39,759.69
339.84,760.69
340.28,761.77
340.72,762.95
341.16,764.24
341.61,765.61
342.05,767.07
342.49,768.59
342.93,770.14
343.38,771.69
343.82,773.22
344.26,774.71
344.70,776.14
345.15,777.50
345.59,778.80
346.03,780.03
346.47,781.20
346.92,782.30
347.36,783.36
347.80,784.36
348.24,785.31
348.68,786.22
349.13,787.09
349.57,787.92
350.01,788.74
350.45,789.54
350.89,790.34
351.34,791.15
351.78,791.97
352.22,792.80
352.66,793.64
353.10,794.48
353.54,795.31
353.99,796.11
354.43,796.88
354.87,797.61
355.31,798.29
355.75,798.90
356.19,799.47
356.63,799.98
357.08,800.44
357.52,800.87
357.96,801.26
358.40,801.62
358.84,801.95
359.28,802.28
359.72,802.59
360.16,802.89
360.60,803.20
361.05,803.50
361.49,803.81
361.93,804.12
362.37,804.42
362.81,804.70
363.25,804.94
363.69,805.13
364.13,805.24
364.57,805.27
365.01,805.21
365.45,805.04
365.89,804.78
366.33,804.44
366.78,804.01
367.22,803.52
367.66,802.97
368.10,802.38
368.54,801.76
368.98,801.11
369.42,800.44
369.86,799.73
370.30,799.01
370.74,798.25
371.18,797.48
371.62,796.70
372.06,795.90
372.50,795.10
372.94,794.31
373.38,793.52
373.82,792.72
374.26,791.91
374.70,791.07
375.14,790.18
375.58,789.22
376.02,788.18
376.46,787.04
376.90,785.83
377.34,784.54
377.78,783.20
378.21,781.85
378.65,780.52
379.09,779.26
379.53,778.08
379.97,777.01
380.41,776.06
380.85,775.24
381.29,774.53
381.73,773.90
382.17,773.33
382.61,772.79
383.05,772.25
383.49,771.68
383.93,771.06
384.36,770.39
384.80,769.65
385.24,768.85
385.68,768.01
386.12,767.13
386.56,766.23
387.00,765.32
387.44,764.40
387.87,763.48
388.31,762.55
388.75,761.61
389.19,760.66
389.63,759.70
390.07,758.75
390.51,757.81
390.94,756.90
391.38,756.06
391.82,755.31
392.26,754.67
392.70,754.15
393.14,753.75
393.57,753.48
394.01,753.32
394.45,753.24
394.89,753.21
395.33,753.22
395.76,753.23
396.20,753.23
396.64,753.19
397.08,753.12
397.52,753.01
397.95,752.86
398.39,752.66
398.83,752.42
399.27,752.15
399.70,751.85
400.14,751.54
400.58,751.21
401.02,750.88
401.45,750.55
401.89,750.23
402.33,749.93
402.77,749.63
403.20,749.36
403.64,749.12
404.08,748.92
404.52,748.78
404.95,748.72
405.39,748.75
405.83,748.90
406.26,749.19
406.70,749.61
407.14,750.18
407.58,750.87
408.01,751.67
408.45,752.55
408.89,753.47
409.32,754.40
409.76,755.31
410.20,756.15
410.63,756.91
411.07,757.57
411.51,758.11
411.94,758.54
412.38,758.86
412.82,759.10
413.25,759.26
413.69,759.37
414.12,759.45
414.56,759.53
415.00,759.63
415.43,759.76
415.87,759.94
416.31,760.17
416.74,760.47
417.18,760.84
417.61,761.26
418.05,761.74
418.49,762.26
418.92,762.80
419.36,763.34
419.79,763.86
420.23,764.35
420.67,764.77
421.10,765.13
421.54,765.43
421.97,765.67
422.41,765.85
422.84,765.99
423.28,766.10
423.71,766.18
424.15,766.23
424.59,766.26
425.02,766.25
425.46,766.21
425.89,766.13
426.33,766.01
426.76,765.87
427.20,765.72
427.63,765.59
428.07,765.50
428.50,765.49
428.94,765.57
429.37,765.79
429.81,766.14
430.24,766.64
430.68,767.28
431.11,768.06
431.55,768.94
431.98,769.91
432.42,770.92
432.85,771.94
433.28,772.94
433.72,773.89
434.15,774.76
434.59,775.56
435.02,776.26
435.46,776.89
435.89,777.45
436.33,777.95
436.76,778.42
437.19,778.85
437.63,779.26
438.06,779.63
438.50,779.96
438.93,780.24
439.37,780.46
439.80,780.61
440.23,780.70
440.67,780.73
441.10,780.73
441.53,780.73
441.97,780.74
442.40,780.80
442.84,780.94
443.27,781.18
443.70,781.54
444.14,782.01
444.57,782.61
445.00,783.32
445.44,784.11
445.87,784.98
446.30,785.88
446.74,786.80
447.17,787.68
447.60,788.51
448.04,789.25
448.47,789.88
448.90,790.37
449.34,790.72
449.77,790.94
450.20,791.05
450.64,791.09
451.07,791.11
451.50,791.16
451.93,791.31
452.37,791.60
452.80,792.07
453.23,792.73
453.67,793.57
454.10,794.55
454.53,795.63
454.96,796.72
455.40,797.78
455.83,798.73
456.26,799.54
456.69,800.18
457.13,800.65
457.56,800.98
457.99,801.20
458.42,801.35
458.86,801.49
459.29,801.66
459.72,801.91
460.15,802.27
460.58,802.77
461.02,803.46
461.45,804.35
461.88,805.46
462.31,806.81
462.74,808.41
463.18,810.26
463.61,812.32
464.04,814.56
464.47,816.91
464.90,819.30
465.33,821.66
465.77,823.90
466.20,825.95
466.63,827.78
467.06,829.36
467.49,830.71
467.92,831.87
468.35,832.90
468.78,833.87
469.22,834.87
469.65,835.96
470.08,837.21
470.51,838.65
470.94,840.32
471.37,842.22
471.80,844.36
472.23,846.74
472.66,849.37
473.10,852.25
473.53,855.41
473.96,858.87
474.39,862.65
474.82,866.73
475.25,871.13
475.68,875.79
476.11,880.66
476.54,885.67
476.97,890.73
477.40,895.75
477.83,900.66
478.26,905.39
478.69,909.92
479.12,914.21
479.55,918.28
479.98,922.14
480.41,925.80
480.84,929.29
481.27,932.62
481.70,935.77
482.13,938.76
482.56,941.57
482.99,944.23
483.42,946.78
483.85,949.25
484.28,951.75
484.71,954.35
485.14,957.16
485.57,960.28
486.00,963.76
486.43,967.66
486.86,971.95
487.29,976.59
487.72,981.49
488.15,986.55
488.58,991.63
489.01,996.64
489.44,1001.48
489.87,1006.12
490.30,1010.56
490.72,1014.82
491.15,1018.97
491.58,1023.10
492.01,1027.28
492.44,1031.55
492.87,1035.94
493.30,1040.42
493.73,1044.93
494.16,1049.35
494.59,1053.57
495.01,1057.46
495.44,1060.92
495.87,1063.86
496.30,1066.26
496.73,1068.15
497.16,1069.61
497.59,1070.75
498.01,1071.73
498.44,1072.70
498.87,1073.81
499.30,1075.16
499.73,1076.85
500.16,1078.91
500.58,1081.33
501.01,1084.08
501.44,1087.12
501.87,1090.39
502.30,1093.85
502.72,1097.47
503.15,1101.25
503.58,1105.22
504.01,1109.42
504.44,1113.88
504.86,1118.66
505.29,1123.75
505.72,1129.16
506.15,1134.82
506.57,1140.63
507.00,1146.48
507.43,1152.20
507.86,1157.65
508.28,1162.66
508.71,1167.11
509.14,1170.92
509.57,1174.05
509.99,1176.52
510.42,1178.40
510.85,1179.80
511.27,1180.86
511.70,1181.70
512.13,1182.46
512.56,1183.24
512.98,1184.11
513.41,1185.10
513.84,1186.18
514.26,1187.31
514.69,1188.44
515.12,1189.50
515.54,1190.44
515.97,1191.24
516.40,1191.92
516.82,1192.53
517.25,1193.16
517.68,1193.95
518.10,1195.01
518.53,1196.48
518.95,1198.49
519.38,1201.11
519.81,1204.38
520.23,1208.29
520.66,1212.78
521.09,1217.75
521.51,1223.05
521.94,1228.53
522.36,1234.01
522.79,1239.35
523.22,1244.42
523.64,1249.14
524.07,1253.48
524.49,1257.44
524.92,1261.08
525.34,1264.48
525.77,1267.72
526.20,1270.89
526.62,1274.03
527.05,1277.16
527.47,1280.26
527.90,1283.23
528.32,1285.98
528.75,1288.37
529.17,1290.27
529.60,1291.57
530.02,1292.21
530.45,1292.17
530.87,1291.51
531.30,1290.36
531.72,1288.86
532.15,1287.24
532.57,1285.70
533.00,1284.46
533.42,1283.69
533.85,1283.50
534.27,1283.97
534.70,1285.05
535.12,1286.69
535.55,1288.73
535.97,1291.00
536.40,1293.32
536.82,1295.50
537.25,1297.42
537.67,1298.99
538.09,1300.18
538.52,1301.04
538.94,1301.68
539.37,1302.26
539.79,1302.98
540.22,1304.03
540.64,1305.59
541.06,1307.82
541.49,1310.80
541.91,1314.56
542.34,1319.03
542.76,1324.12
543.18,1329.63
543.61,1335.36
544.03,1341.08
544.46,1346.55
544.88,1351.58
545.30,1356.00
545.73,1359.74
546.15,1362.76
546.57,1365.10
547.00,1366.89
547.42,1368.26
547.84,1369.41
548.27,1370.53
548.69,1371.77
549.11,1373.26
549.54,1375.06
549.96,1377.17
550.38,1379.52
550.81,1381.98
551.23,1384.38
551.65,1386.53
552.07,1388.26
552.50,1389.40
552.92,1389.84
553.34,1389.53
553.77,1388.49
554.19,1386.78
554.61,1384.54
555.03,1381.94
555.46,1379.18
555.88,1376.48
556.30,1374.04
556.72,1372.04
557.15,1370.63
557.57,1369.88
557.99,1369.86
558.41,1370.53
558.84,1371.83
559.26,1373.64
559.68,1375.83
560.10,1378.21
560.52,1380.61
560.95,1382.88
561.37,1384.90
561.79,1386.57
562.21,1387.89
562.63,1388.88
563.06,1389.65
563.48,1390.35
563.90,1391.20
564.32,1392.42
564.74,1394.23
565.16,1396.85
565.58,1400.44
566.01,1405.11
566.43,1410.88
566.85,1417.71
567.27,1425.45
567.69,1433.89
568.11,1442.76
568.53,1451.76
568.96,1460.55
569.38,1468.83
569.80,1476.33
570.22,1482.83
570.64,1488.19
571.06,1492.34
571.48,1495.30
571.90,1497.18
572.32,1498.12
572.74,1498.32
573.16,1498.02
573.58,1497.43
574.01,1496.74
574.43,1496.13
574.85,1495.68
575.27,1495.44
575.69,1495.40
576.11,1495.47
576.53,1495.52
576.95,1495.41
577.37,1494.96
577.79,1494.03
578.21,1492.49
578.63,1490.25
579.05,1487.28
579.47,1483.62
579.89,1479.34
580.31,1474.60
580.73,1469.56
581.15,1464.45
581.57,1459.47
581.99,1454.85
582.41,1450.76
582.83,1447.37
583.25,1444.78
583.67,1443.04
584.09,1442.14
584.51,1442.03
584.93,1442.60
585.34,1443.70
585.76,1445.16
586.18,1446.80
586.60,1448.44
587.02,1449.92
587.44,1451.10
587.86,1451.92
588.28,1452.33
588.70,1452.37
589.12,1452.11
589.54,1451.68
589.95,1451.25
590.37,1451.01
590.79,1451.14
591.21,1451.83
591.63,1453.24
592.05,1455.49
592.47,1458.64
592.89,1462.73
593.30,1467.72
593.72,1473.54
594.14,1480.08
594.56,1487.21
594.98,1494.77
595.40,1502.58
595.81,1510.48
596.23,1518.30
596.65,1525.89
597.07,1533.11
597.49,1539.86
597.90,1546.08
598.32,1551.75
598.74,1556.89
599.16,1561.57
599.58,1565.89
599.99,1569.98
600.41,1573.97
600.83,1578.00
601.25,1582.18
601.66,1586.57
602.08,1591.19
602.50,1596.02
602.92,1600.96
603.33,1605.88
603.75,1610.59
604.17,1614.89
604.59,1618.57
605.00,1621.43
605.42,1623.28
605.84,1623.99
606.25,1623.47
606.67,1621.67
607.09,1618.62
607.51,1614.41
607.92,1609.17
608.34,1603.08
608.76,1596.35
609.17,1589.24
609.59,1581.97
610.01,1574.78
610.42,1567.88
610.84,1561.45
611.26,1555.62
611.67,1550.48
612.09,1546.05
612.51,1542.32
612.92,1539.24
613.34,1536.71
613.75,1534.61
614.17,1532.82
614.59,1531.18
615.00,1529.57
615.42,1527.87
615.83,1525.97
616.25,1523.79
616.67,1521.31
617.08,1518.49
617.50,1515.36
617.91,1511.96
618.33,1508.36
618.75,1504.65
619.16,1500.93
619.58,1497.34
619.99,1493.97
620.41,1490.96
620.82,1488.42
621.24,1486.43
621.65,1485.07
622.07,1484.38
622.48,1484.37
622.90,1485.02
623.31,1486.26
623.73,1488.02
624.14,1490.15
624.56,1492.53
624.97,1495.00
625.39,1497.40
625.80,1499.59
626.22,1501.43
626.63,1502.84
627.05,1503.74
627.46,1504.11
627.88,1503.95
628.29,1503.31
628.71,1502.28
629.12,1500.98
629.54,1499.53
629.95,1498.09
630.37,1496.79
630.78,1495.80
631.19,1495.22
631.61,1495.15
632.02,1495.67
632.44,1496.82
632.85,1498.59
633.26,1500.95
633.68,1503.85
634.09,1507.20
634.51,1510.89
634.92,1514.80
635.33,1518.79
635.75,1522.73
636.16,1526.49
636.57,1529.96
636.99,1533.04
637.40,1535.67
637.82,1537.81
638.23,1539.43
638.64,1540.57
639.06,1541.24
639.47,1541.52
639.88,1541.49
640.30,1541.23
640.71,1540.85
641.12,1540.44
641.53,1540.10
641.95,1539.90
642.36,1539.91
642.77,1540.18
643.19,1540.73
643.60,1541.58
644.01,1542.69
644.42,1544.05
644.84,1545.58
645.25,1547.21
645.66,1548.88
646.08,1550.50
646.49,1551.97
646.90,1553.21
647.31,1554.15
647.73,1554.71
648.14,1554.84
648.55,1554.48
648.96,1553.61
649.37,1552.21
649.79,1550.31
650.20,1547.92
650.61,1545.11
651.02,1541.94
651.43,1538.53
651.85,1534.99
652.26,1531.46
652.67,1528.08
653.08,1525.01
653.49,1522.39
653.90,1520.37
654.32,1519.05
654.73,1518.52
655.14,1518.80
655.55,1519.89
655.96,1521.73
656.37,1524.19
656.78,1527.12
657.20,1530.33
657.61,1533.61
658.02,1536.74
658.43,1539.53
658.84,1541.81
659.25,1543.46
659.66,1544.39
660.07,1544.58
660.48,1544.05
660.90,1542.87
661.31,1541.12
661.72,1538.93
662.13,1536.43
662.54,1533.74
662.95,1530.99
663.36,1528.30
663.77,1525.76
664.18,1523.49
664.59,1521.54
665.00,1520.01
665.41,1518.95
665.82,1518.41
666.23,1518.46
666.64,1519.11
667.05,1520.38
667.46,1522.26
667.87,1524.72
668.28,1527.70
668.69,1531.12
669.10,1534.88
669.51,1538.88
669.92,1542.97
670.33,1547.05
670.74,1550.99
671.15,1554.67
671.56,1558.00
671.97,1560.89
672.38,1563.25
672.79,1565.05
673.20,1566.24
673.61,1566.82
674.02,1566.81
674.42,1566.28
674.83,1565.30
675.24,1564.00
675.65,1562.51
676.06,1561.00
676.47,1559.63
676.88,1558.58
677.29,1557.98
677.70,1557.98
678.11,1558.65
678.51,1560.06
678.92,1562.23
679.33,1565.14
679.74,1568.75
680.15,1572.99
680.56,1577.77
680.97,1582.99
681.37,1588.53
681.78,1594.26
682.19,1600.06
682.60,1605.79
683.01,1611.32
683.42,1616.50
683.82,1621.22
684.23,1625.35
684.64,1628.78
685.05,1631.41
685.45,1633.21
685.86,1634.13
686.27,1634.21
686.68,1633.50
687.09,1632.10
687.49,1630.15
687.90,1627.83
688.31,1625.32
688.72,1622.82
689.12,1620.52
689.53,1618.62
689.94,1617.25
690.35,1616.54
690.75,1616.56
691.16,1617.35
691.57,1618.90
691.97,1621.16
692.38,1624.05
692.79,1627.45
693.20,1631.22
693.60,1635.19
694.01,1639.20
694.42,1643.07
694.82,1646.62
695.23,1649.69
695.64,1652.13
696.04,1653.81
696.45,1654.65
696.86,1654.57
697.26,1653.55
697.67,1651.60
698.07,1648.76
698.48,1645.11
698.89,1640.74
699.29,1635.80
699.70,1630.43
700.11,1624.80
700.51,1619.07
700.92,1613.44
701.32,1608.08
701.73,1603.16
702.14,1598.85
702.54,1595.29
702.95,1592.59
703.35,1590.85
703.76,1590.09
704.16,1590.34
704.57,1591.55
704.97,1593.63
705.38,1596.48
705.79,1599.94
706.19,1603.84
706.60,1608.00
707.00,1612.25
707.41,1616.41
707.81,1620.32
708.22,1623.87
708.62,1626.94
709.03,1629.45
709.43,1631.35
709.84,1632.60
710.24,1633.19
710.65,1633.12
711.05,1632.40
711.46,1631.06
711.86,1629.13
712.27,1626.65
712.67,1623.68
713.07,1620.27
713.48,1616.51
713.88,1612.51
714.29,1608.39
714.69,1604.31
715.10,1600.43
715.50,1596.95
715.90,1594.05
716.31,1591.93
716.71,1590.75
717.12,1590.64
717.52,1591.68
717.92,1593.92
718.33,1597.32
718.73,1601.82
719.14,1607.30
719.54,1613.61
719.94,1620.58
720.35,1628.02
720.75,1635.75
721.15,1643.63
721.56,1651.49
721.96,1659.23
722.36,1666.74
722.77,1673.94
723.17,1680.78
723.57,1687.18
723.98,1693.11
724.38,1698.49
724.78,1703.27
725.19,1707.38
725.59,1710.76
725.99,1713.36
726.39,1715.14
726.80,1716.09
727.20,1716.25
727.60,1715.68
728.00,1714.48
728.41,1712.81
728.81,1710.85
729.21,1708.80
729.61,1706.91
730.02,1705.38
730.42,1704.44
730.82,1704.29
731.22,1705.09
731.63,1706.96
732.03,1710.00
732.43,1714.24
732.83,1719.69
733.23,1726.32
733.64,1734.04
734.04,1742.76
734.44,1752.35
734.84,1762.66
735.24,1773.52
735.64,1784.75
736.05,1796.17
736.45,1807.56
736.85,1818.74
737.25,1829.49
737.65,1839.64
738.05,1849.01
738.45,1857.43
738.86,1864.78
739.26,1870.96
739.66,1875.89
740.06,1879.54
740.46,1881.90
740.86,1883.00
741.26,1882.91
741.66,1881.73
742.06,1879.57
742.46,1876.61
742.87,1873.02
